# Wavenumber Transmittence
823.00 0.764060
793.00 0.785800
778.00 0.796080
773.00 0.789160
763.00 0.679900
828.00 0.769880
798.00 0.795320
818.00 0.735980
868.00 0.530020
843.00 0.665360
848.00 0.647340
878.00 0.233460
858.00 0.629780
833.00 0.757620
863.00 0.605760
803.00 0.781540
783.00 0.774300
813.00 0.723640
788.00 0.766380
838.00 0.702940
808.00 0.737280
853.00 0.638460
768.00 0.742980
873.00 0.375400
