# Wavenumber Transmittence
768.00 0.742980
773.00 0.789160
753.00 0.607920
718.00 0.282020
688.00 0.866820
723.00 0.167980
728.00 0.314140
698.00 0.837460
763.00 0.679900
793.00 0.785800
783.00 0.774300
743.00 0.669540
703.00 0.795620
733.00 0.492340
798.00 0.795320
748.00 0.661460
678.00 0.856640
683.00 0.867400
788.00 0.766380
713.00 0.475280
693.00 0.856040
758.00 0.619080
778.00 0.796080
738.00 0.642620
708.00 0.682300
