# Wavenumber	Transmittence
753.00	0.607920
718.00	0.282020
713.00	0.475280
648.00	0.473640
678.00	0.856640
663.00	0.734280
668.00	0.794980
768.00	0.742980
728.00	0.314140
653.00	0.606540
723.00	0.167980
773.00	0.789160
708.00	0.682300
688.00	0.866820
693.00	0.856040
738.00	0.642620
658.00	0.696980
633.00	0.192220
703.00	0.795620
758.00	0.619080
643.00	0.355060
733.00	0.492340
638.00	0.240280
673.00	0.833600
748.00	0.661460
763.00	0.679900
683.00	0.867400
743.00	0.669540
698.00	0.837460
