# Wavenumber	Transmittence
3258.00	0.899220
3263.00	0.902140
3283.00	0.923060
3213.00	0.877380
3208.00	0.869780
3243.00	0.901860
3293.00	0.924660
3288.00	0.924060
3223.00	0.889800
3253.00	0.900520
3273.00	0.918280
3278.00	0.921440
3268.00	0.910820
3248.00	0.901860
3218.00	0.883900
3238.00	0.901400
3298.00	0.924920
3233.00	0.899580
3303.00	0.924900
3228.00	0.895180
