# Wavenumber	Transmittence
823.00	0.764060
803.00	0.781540
838.00	0.702940
758.00	0.619080
808.00	0.737280
853.00	0.638460
818.00	0.735980
843.00	0.665360
798.00	0.795320
813.00	0.723640
763.00	0.679900
833.00	0.757620
793.00	0.785800
773.00	0.789160
788.00	0.766380
783.00	0.774300
848.00	0.647340
778.00	0.796080
768.00	0.742980
828.00	0.769880
