# Wavenumber	Transmittence
2158.00	0.913580
2123.00	0.926480
2103.00	0.927700
2068.00	0.922760
2073.00	0.922780
2108.00	0.927700
2088.00	0.925120
2133.00	0.923900
2083.00	0.922820
2113.00	0.927600
2153.00	0.915100
2093.00	0.927340
2138.00	0.921660
2118.00	0.927280
2058.00	0.919000
2078.00	0.922700
2163.00	0.912500
2098.00	0.927620
2148.00	0.916820
2168.00	0.911500
2053.00	0.915580
2128.00	0.925460
2063.00	0.921600
2143.00	0.919200
