# Wavenumber,Transmittence
1043.00,0.556240
943.00,0.503620
1028.00,0.577260
968.00,0.222560
1018.00,0.512160
983.00,0.013940
993.00,0.009320
973.00,0.133100
988.00,0.005060
963.00,0.312000
1048.00,0.531900
948.00,0.519780
938.00,0.454160
998.00,0.068820
1038.00,0.575360
1008.00,0.306100
1033.00,0.577640
1003.00,0.175940
1013.00,0.442080
1053.00,0.556440
978.00,0.050020
928.00,0.292200
953.00,0.488880
933.00,0.378700
958.00,0.401440
1023.00,0.567580
