# Wavenumber Transmittence
3353.00 0.921340
3333.00 0.920120
3313.00 0.923400
3318.00 0.922180
3343.00 0.920200
3263.00 0.902140
3308.00 0.924260
3293.00 0.924660
3268.00 0.910820
3303.00 0.924900
3278.00 0.921440
3298.00 0.924920
3273.00 0.918280
3328.00 0.920380
3323.00 0.920920
3338.00 0.919920
3258.00 0.899220
3348.00 0.920800
3288.00 0.924060
3283.00 0.923060
