# Wavenumber	Transmittence
2368.00	0.891440
2393.00	0.910800
2338.00	0.887380
2408.00	0.907160
2358.00	0.887740
2373.00	0.895280
2343.00	0.886860
2378.00	0.899380
2423.00	0.903180
2388.00	0.909000
2403.00	0.908920
2353.00	0.887220
2413.00	0.905240
2428.00	0.903460
2333.00	0.888080
2383.00	0.904940
2348.00	0.886980
2418.00	0.903880
2398.00	0.910280
2363.00	0.889240
2433.00	0.904540
