# Wavenumber,Transmittence
708.00,0.682300
658.00,0.696980
728.00,0.314140
743.00,0.669540
723.00,0.167980
693.00,0.856040
638.00,0.240280
698.00,0.837460
688.00,0.866820
703.00,0.795620
713.00,0.475280
678.00,0.856640
648.00,0.473640
738.00,0.642620
753.00,0.607920
663.00,0.734280
668.00,0.794980
683.00,0.867400
673.00,0.833600
643.00,0.355060
748.00,0.661460
653.00,0.606540
718.00,0.282020
733.00,0.492340
