# Wavenumber,Transmittence
563.00,0.766400
603.00,0.802140
598.00,0.850040
583.00,0.903520
553.00,0.604740
548.00,0.628080
538.00,0.876660
528.00,0.950260
523.00,0.955580
613.00,0.568440
518.00,0.960580
588.00,0.899200
568.00,0.813040
508.00,0.967200
573.00,0.869620
513.00,0.964220
543.00,0.757220
558.00,0.696380
593.00,0.880000
578.00,0.897060
608.00,0.719520
533.00,0.923380
