# Wavenumber Transmittence
2433.00 0.904540
2413.00 0.905240
2458.00 0.913000
2498.00 0.896620
2493.00 0.899920
2448.00 0.910380
2443.00 0.908580
2453.00 0.912080
2478.00 0.907820
2473.00 0.910300
2503.00 0.892480
2403.00 0.908920
2418.00 0.903880
2428.00 0.903460
2483.00 0.905320
2463.00 0.913180
2423.00 0.903180
2488.00 0.902660
2438.00 0.906560
2408.00 0.907160
2468.00 0.912360
