# Wavenumber Transmittence
2418.00 0.903880
2343.00 0.886860
2353.00 0.887220
2323.00 0.892460
2393.00 0.910800
2388.00 0.909000
2313.00 0.898400
2398.00 0.910280
2348.00 0.886980
2413.00 0.905240
2368.00 0.891440
2338.00 0.887380
2408.00 0.907160
2423.00 0.903180
2358.00 0.887740
2363.00 0.889240
2403.00 0.908920
2333.00 0.888080
2328.00 0.889860
2308.00 0.899820
2383.00 0.904940
2373.00 0.895280
2318.00 0.895560
2303.00 0.898800
2378.00 0.899380
