# Wavenumber,Transmittence
673.00,0.833600
768.00,0.742980
793.00,0.785800
708.00,0.682300
778.00,0.796080
803.00,0.781540
783.00,0.774300
743.00,0.669540
678.00,0.856640
763.00,0.679900
773.00,0.789160
753.00,0.607920
798.00,0.795320
748.00,0.661460
698.00,0.837460
728.00,0.314140
683.00,0.867400
703.00,0.795620
733.00,0.492340
718.00,0.282020
663.00,0.734280
738.00,0.642620
723.00,0.167980
693.00,0.856040
788.00,0.766380
758.00,0.619080
713.00,0.475280
688.00,0.866820
668.00,0.794980
