# Wavenumber Transmittence
2548.00 0.824200
2503.00 0.892480
2448.00 0.910380
2573.00 0.793880
2533.00 0.854980
2558.00 0.810440
2578.00 0.789300
2518.00 0.870140
2498.00 0.896620
2473.00 0.910300
2513.00 0.879700
2488.00 0.902660
2523.00 0.867640
2563.00 0.804220
2483.00 0.905320
2553.00 0.817120
2543.00 0.831960
2568.00 0.798580
2528.00 0.862980
2493.00 0.899920
2538.00 0.843560
2508.00 0.887380
2468.00 0.912360
2463.00 0.913180
2478.00 0.907820
2458.00 0.913000
2453.00 0.912080
