# Wavenumber Transmittence
3933.00 0.879700
3938.00 0.874000
3908.00 0.885360
3973.00 0.851560
3903.00 0.885980
3958.00 0.855320
3948.00 0.861280
3978.00 0.848260
3923.00 0.883480
3883.00 0.888620
3888.00 0.887960
3893.00 0.887280
3968.00 0.853340
3943.00 0.867500
3953.00 0.857940
3913.00 0.884780
3898.00 0.886620
3878.00 0.889260
3963.00 0.854040
3928.00 0.881980
3918.00 0.884200
