# Wavenumber Transmittence
3498.00 0.932520
3563.00 0.937400
3543.00 0.936060
3493.00 0.932220
3513.00 0.933420
3523.00 0.934200
3508.00 0.933120
3538.00 0.935560
3463.00 0.932000
3533.00 0.935100
3488.00 0.931960
3528.00 0.934700
3468.00 0.932000
3483.00 0.931900
3503.00 0.932820
3518.00 0.933800
3553.00 0.938140
3448.00 0.930160
3548.00 0.937060
3568.00 0.936400
3453.00 0.931280
3558.00 0.938460
3458.00 0.932060
3478.00 0.931900
3473.00 0.931980
