# Wavenumber Transmittence
898.00 0.006620
868.00 0.530020
943.00 0.503620
938.00 0.454160
918.00 0.099720
888.00 0.096820
863.00 0.605760
893.00 0.028740
953.00 0.488880
878.00 0.233460
923.00 0.205800
903.00 0.000000
958.00 0.401440
948.00 0.519780
853.00 0.638460
963.00 0.312000
928.00 0.292200
858.00 0.629780
883.00 0.189000
873.00 0.375400
933.00 0.378700
913.00 0.008100
908.00 0.000000
848.00 0.647340
