# Wavenumber	Transmittence
2068.00	0.922760
2003.00	0.918560
2073.00	0.922780
2033.00	0.905620
2028.00	0.905180
2053.00	0.915580
1983.00	0.875900
1998.00	0.915720
1978.00	0.866360
2013.00	0.914840
2018.00	0.911180
2078.00	0.922700
2098.00	0.927620
2063.00	0.921600
2088.00	0.925120
1993.00	0.909320
2043.00	0.909340
2023.00	0.906180
2008.00	0.917460
2058.00	0.919000
2083.00	0.922820
2093.00	0.927340
1988.00	0.891940
2038.00	0.906980
2048.00	0.912360
2108.00	0.927700
2103.00	0.927700
