# Wavenumber,Transmittence
488.00,0.943380
533.00,0.923380
413.00,0.809500
458.00,0.922520
503.00,0.969080
528.00,0.950260
433.00,0.846880
408.00,0.783920
423.00,0.840660
438.00,0.838800
498.00,0.963340
473.00,0.949980
453.00,0.898200
468.00,0.949560
403.00,0.771160
448.00,0.874140
493.00,0.950040
513.00,0.964220
463.00,0.942020
483.00,0.942020
523.00,0.955580
428.00,0.849780
478.00,0.945800
418.00,0.825480
508.00,0.967200
518.00,0.960580
443.00,0.848700
