# Wavenumber Transmittence
723.00 0.167980
683.00 0.867400
708.00 0.682300
643.00 0.355060
748.00 0.661460
663.00 0.734280
698.00 0.837460
688.00 0.866820
713.00 0.475280
733.00 0.492340
678.00 0.856640
693.00 0.856040
718.00 0.282020
728.00 0.314140
648.00 0.473640
753.00 0.607920
743.00 0.669540
703.00 0.795620
658.00 0.696980
673.00 0.833600
653.00 0.606540
738.00 0.642620
668.00 0.794980
