# Wavenumber	Transmittence
473.00	0.949980
508.00	0.967200
423.00	0.840660
433.00	0.846880
413.00	0.809500
418.00	0.825480
443.00	0.848700
403.00	0.771160
448.00	0.874140
493.00	0.950040
503.00	0.969080
408.00	0.783920
468.00	0.949560
488.00	0.943380
428.00	0.849780
483.00	0.942020
478.00	0.945800
458.00	0.922520
463.00	0.942020
438.00	0.838800
498.00	0.963340
453.00	0.898200
