# Wavenumber Transmittence
858.00 0.629780
933.00 0.378700
848.00 0.647340
863.00 0.605760
918.00 0.099720
853.00 0.638460
903.00 0.000000
873.00 0.375400
898.00 0.006620
963.00 0.312000
953.00 0.488880
938.00 0.454160
923.00 0.205800
958.00 0.401440
913.00 0.008100
943.00 0.503620
883.00 0.189000
908.00 0.000000
878.00 0.233460
928.00 0.292200
948.00 0.519780
893.00 0.028740
868.00 0.530020
888.00 0.096820
