# Wavenumber	Transmittence
2078.00	0.922700
2048.00	0.912360
2003.00	0.918560
2073.00	0.922780
1988.00	0.891940
2063.00	0.921600
2023.00	0.906180
2018.00	0.911180
2083.00	0.922820
2008.00	0.917460
2028.00	0.905180
2033.00	0.905620
1993.00	0.909320
1983.00	0.875900
2058.00	0.919000
2013.00	0.914840
2043.00	0.909340
2068.00	0.922760
2053.00	0.915580
2038.00	0.906980
1998.00	0.915720
