# Wavenumber,Transmittence
2348.00,0.886980
2378.00,0.899380
2318.00,0.895560
2373.00,0.895280
2368.00,0.891440
2393.00,0.910800
2353.00,0.887220
2323.00,0.892460
2383.00,0.904940
2308.00,0.899820
2313.00,0.898400
2388.00,0.909000
2298.00,0.897380
2333.00,0.888080
2358.00,0.887740
2303.00,0.898800
2338.00,0.887380
2398.00,0.910280
2343.00,0.886860
2328.00,0.889860
2363.00,0.889240
