# Wavenumber,Transmittence
3818.00,0.902660
3733.00,0.897780
3713.00,0.913640
3738.00,0.897360
3763.00,0.904540
3793.00,0.908480
3803.00,0.909420
3778.00,0.904600
3783.00,0.904540
3798.00,0.910080
3758.00,0.904380
3753.00,0.904180
3768.00,0.904600
3748.00,0.903880
3773.00,0.904620
3723.00,0.910440
3743.00,0.902380
3813.00,0.904820
3718.00,0.913340
3728.00,0.904760
3788.00,0.905680
3808.00,0.907400
