# Wavenumber	Transmittence
2363.00	0.889240
2338.00	0.887380
2318.00	0.895560
2358.00	0.887740
2393.00	0.910800
2403.00	0.908920
2378.00	0.899380
2413.00	0.905240
2398.00	0.910280
2313.00	0.898400
2408.00	0.907160
2368.00	0.891440
2353.00	0.887220
2373.00	0.895280
2388.00	0.909000
2328.00	0.889860
2383.00	0.904940
2323.00	0.892460
2298.00	0.897380
2308.00	0.899820
2343.00	0.886860
2348.00	0.886980
2333.00	0.888080
2303.00	0.898800
