# Wavenumber Transmittence
3938.00 0.874000
3908.00 0.885360
3993.00 0.835020
3948.00 0.861280
3988.00 0.838960
3983.00 0.843360
3933.00 0.879700
3903.00 0.885980
3963.00 0.854040
3928.00 0.881980
3953.00 0.857940
3913.00 0.884780
3923.00 0.883480
3978.00 0.848260
3998.00 0.832333
3918.00 0.884200
3958.00 0.855320
3973.00 0.851560
3943.00 0.867500
3968.00 0.853340
3898.00 0.886620
