# Wavenumber	Transmittence
2773.00	0.506680
2698.00	0.674740
2748.00	0.627080
2743.00	0.630200
2758.00	0.605920
2728.00	0.597800
2703.00	0.659740
2783.00	0.394620
2693.00	0.690180
2768.00	0.548040
2688.00	0.694340
2753.00	0.619800
2763.00	0.584880
2713.00	0.598800
2738.00	0.632040
2733.00	0.620220
2718.00	0.579500
2683.00	0.692060
2778.00	0.452380
2723.00	0.579580
2708.00	0.643700
