# Wavenumber Transmittence
3523.00 0.934200
3423.00 0.924900
3503.00 0.932820
3508.00 0.933120
3473.00 0.931980
3528.00 0.934700
3438.00 0.927960
3448.00 0.930160
3533.00 0.935100
3428.00 0.925820
3478.00 0.931900
3538.00 0.935560
3498.00 0.932520
3453.00 0.931280
3488.00 0.931960
3458.00 0.932060
3468.00 0.932000
3433.00 0.926900
3513.00 0.933420
3463.00 0.932000
3418.00 0.925060
3443.00 0.929040
3483.00 0.931900
3493.00 0.932220
3518.00 0.933800
