# Wavenumber Transmittence
3428.00 0.925820
3388.00 0.925860
3403.00 0.926380
3398.00 0.926720
3443.00 0.929040
3378.00 0.924160
3423.00 0.924900
3358.00 0.921920
3408.00 0.926000
3383.00 0.925020
3363.00 0.922500
3453.00 0.931280
3373.00 0.923500
3393.00 0.926660
3433.00 0.926900
3368.00 0.923000
3413.00 0.925500
3438.00 0.927960
3418.00 0.925060
3448.00 0.930160
