# Wavenumber	Transmittence
483.00	0.942020
433.00	0.846880
528.00	0.950260
438.00	0.838800
463.00	0.942020
518.00	0.960580
423.00	0.840660
428.00	0.849780
408.00	0.783920
453.00	0.898200
493.00	0.950040
503.00	0.969080
488.00	0.943380
403.00	0.771160
468.00	0.949560
523.00	0.955580
458.00	0.922520
413.00	0.809500
478.00	0.945800
448.00	0.874140
508.00	0.967200
473.00	0.949980
498.00	0.963340
513.00	0.964220
443.00	0.848700
533.00	0.923380
418.00	0.825480
