# Wavenumber Transmittence
918.00 0.099720
973.00 0.133100
948.00 0.519780
938.00 0.454160
978.00 0.050020
953.00 0.488880
993.00 0.009320
928.00 0.292200
923.00 0.205800
1008.00 0.306100
908.00 0.000000
988.00 0.005060
913.00 0.008100
933.00 0.378700
943.00 0.503620
898.00 0.006620
1003.00 0.175940
958.00 0.401440
903.00 0.000000
968.00 0.222560
963.00 0.312000
998.00 0.068820
983.00 0.013940
