# Wavenumber Transmittence
2963.00 0.000000
2958.00 0.000000
2973.00 0.006600
2998.00 0.194180
3023.00 0.346560
2943.00 0.000000
2983.00 0.017060
3048.00 0.116000
2988.00 0.017660
3003.00 0.230340
2948.00 0.000000
2923.00 0.000000
2938.00 0.000000
3033.00 0.286940
3013.00 0.301140
3043.00 0.173000
3038.00 0.230000
2928.00 0.000000
2993.00 0.051460
3008.00 0.265720
2978.00 0.013160
3018.00 0.333940
3028.00 0.343620
2933.00 0.000000
2953.00 0.000000
2968.00 0.000840
