# Wavenumber	Transmittence
633.00	0.192220
578.00	0.897060
613.00	0.568440
663.00	0.734280
678.00	0.856640
693.00	0.856040
683.00	0.867400
568.00	0.813040
563.00	0.766400
588.00	0.899200
658.00	0.696980
623.00	0.278580
648.00	0.473640
628.00	0.200780
653.00	0.606540
688.00	0.866820
593.00	0.880000
598.00	0.850040
618.00	0.423320
603.00	0.802140
643.00	0.355060
698.00	0.837460
668.00	0.794980
673.00	0.833600
583.00	0.903520
608.00	0.719520
638.00	0.240280
573.00	0.869620
