# Wavenumber,Transmittence
1098.00,0.662220
1118.00,0.662200
1128.00,0.698740
1133.00,0.672480
1143.00,0.690740
1148.00,0.728900
1108.00,0.561260
1083.00,0.672640
1123.00,0.705980
1048.00,0.531900
1078.00,0.648980
1053.00,0.556440
1058.00,0.587800
1073.00,0.636020
1093.00,0.716120
1088.00,0.716240
1103.00,0.594500
1138.00,0.672820
1068.00,0.630240
1063.00,0.618180
1113.00,0.605700
