# Wavenumber	Transmittence
2528.00	0.862980
2543.00	0.831960
2573.00	0.793880
2598.00	0.764120
2558.00	0.810440
2533.00	0.854980
2593.00	0.772120
2583.00	0.785300
2568.00	0.798580
2578.00	0.789300
2548.00	0.824200
2538.00	0.843560
2613.00	0.741900
2518.00	0.870140
2588.00	0.780260
2603.00	0.756500
2608.00	0.749120
2563.00	0.804220
2523.00	0.867640
2553.00	0.817120
2618.00	0.734860
