# Wavenumber	Transmittence
1958.00	0.901060
2033.00	0.905620
1988.00	0.891940
1998.00	0.915720
1968.00	0.860600
2048.00	0.912360
1978.00	0.866360
2018.00	0.911180
2038.00	0.906980
2028.00	0.905180
1963.00	0.878940
2053.00	0.915580
2013.00	0.914840
2023.00	0.906180
1953.00	0.919660
1983.00	0.875900
1973.00	0.857800
1993.00	0.909320
2003.00	0.918560
2043.00	0.909340
2008.00	0.917460
