# Wavenumber	Transmittence
948.00	0.519780
883.00	0.189000
923.00	0.205800
888.00	0.096820
903.00	0.000000
898.00	0.006620
868.00	0.530020
928.00	0.292200
943.00	0.503620
973.00	0.133100
873.00	0.375400
958.00	0.401440
938.00	0.454160
893.00	0.028740
878.00	0.233460
963.00	0.312000
918.00	0.099720
908.00	0.000000
863.00	0.605760
968.00	0.222560
913.00	0.008100
933.00	0.378700
953.00	0.488880
