# Wavenumber	Transmittence
2463.00	0.913180
2473.00	0.910300
2458.00	0.913000
2443.00	0.908580
2503.00	0.892480
2488.00	0.902660
2433.00	0.904540
2518.00	0.870140
2513.00	0.879700
2413.00	0.905240
2493.00	0.899920
2498.00	0.896620
2468.00	0.912360
2453.00	0.912080
2428.00	0.903460
2423.00	0.903180
2478.00	0.907820
2418.00	0.903880
2508.00	0.887380
2448.00	0.910380
2438.00	0.906560
2483.00	0.905320
