# Wavenumber,Transmittence
3818.00,0.902660
3788.00,0.905680
3763.00,0.904540
3828.00,0.900520
3758.00,0.904380
3838.00,0.898300
3803.00,0.909420
3808.00,0.907400
3783.00,0.904540
3793.00,0.908480
3798.00,0.910080
3773.00,0.904620
3813.00,0.904820
3778.00,0.904600
3848.00,0.894440
3833.00,0.899680
3753.00,0.904180
3768.00,0.904600
3823.00,0.901640
3843.00,0.896780
