# Wavenumber	Transmittence
1493.00	0.626360
1563.00	0.814220
1533.00	0.739980
1523.00	0.746160
1518.00	0.732660
1503.00	0.690140
1538.00	0.743080
1553.00	0.772280
1498.00	0.664140
1588.00	0.828740
1608.00	0.660640
1573.00	0.835000
1578.00	0.835840
1528.00	0.743420
1508.00	0.708780
1603.00	0.714200
1488.00	0.588360
1543.00	0.751360
1513.00	0.723260
1568.00	0.829900
1593.00	0.815120
1613.00	0.634280
1483.00	0.527500
1548.00	0.762360
1558.00	0.790680
1598.00	0.793320
1583.00	0.833940
