# Wavenumber	Transmittence
2013.00	0.914840
2048.00	0.912360
1928.00	0.931500
2003.00	0.918560
1948.00	0.928500
1988.00	0.891940
2008.00	0.917460
1953.00	0.919660
1993.00	0.909320
2018.00	0.911180
1933.00	0.936200
2033.00	0.905620
1938.00	0.935920
2043.00	0.909340
1998.00	0.915720
1978.00	0.866360
1963.00	0.878940
1968.00	0.860600
2028.00	0.905180
1973.00	0.857800
1983.00	0.875900
2023.00	0.906180
2038.00	0.906980
2053.00	0.915580
1958.00	0.901060
1943.00	0.933580
