# Wavenumber Transmittence
2628.00 0.723780
2678.00 0.681720
2718.00 0.579500
2673.00 0.660540
2633.00 0.710800
2643.00 0.674800
2623.00 0.728180
2683.00 0.692060
2703.00 0.659740
2658.00 0.640700
2698.00 0.674740
2708.00 0.643700
2713.00 0.598800
2663.00 0.641640
2653.00 0.643880
2668.00 0.644860
2648.00 0.656940
2688.00 0.694340
2638.00 0.692800
2723.00 0.579580
2693.00 0.690180
