# Wavenumber,Transmittence
2833.00,0.006780
2793.00,0.281260
2783.00,0.394620
2843.00,0.000980
2788.00,0.336880
2778.00,0.452380
2758.00,0.605920
2828.00,0.009860
2738.00,0.632040
2813.00,0.101540
2808.00,0.148380
2733.00,0.620220
2823.00,0.020160
2748.00,0.627080
2803.00,0.195120
2798.00,0.241540
2838.00,0.003820
2773.00,0.506680
2768.00,0.548040
2818.00,0.055400
2743.00,0.630200
2723.00,0.579580
2728.00,0.597800
2753.00,0.619800
2763.00,0.584880
