# Wavenumber	Transmittence
973.00	0.133100
933.00	0.378700
978.00	0.050020
898.00	0.006620
918.00	0.099720
943.00	0.503620
928.00	0.292200
993.00	0.009320
948.00	0.519780
913.00	0.008100
893.00	0.028740
908.00	0.000000
938.00	0.454160
988.00	0.005060
903.00	0.000000
883.00	0.189000
983.00	0.013940
923.00	0.205800
888.00	0.096820
958.00	0.401440
963.00	0.312000
953.00	0.488880
968.00	0.222560
