# Wavenumber Transmittence
443.00 0.848700
468.00 0.949560
498.00 0.963340
518.00 0.960580
548.00 0.628080
448.00 0.874140
478.00 0.945800
513.00 0.964220
543.00 0.757220
508.00 0.967200
488.00 0.943380
458.00 0.922520
553.00 0.604740
473.00 0.949980
503.00 0.969080
523.00 0.955580
528.00 0.950260
563.00 0.766400
558.00 0.696380
493.00 0.950040
483.00 0.942020
538.00 0.876660
453.00 0.898200
438.00 0.838800
533.00 0.923380
463.00 0.942020
