# Wavenumber Transmittence
833.00 0.757620
813.00 0.723640
893.00 0.028740
873.00 0.375400
818.00 0.735980
843.00 0.665360
808.00 0.737280
918.00 0.099720
803.00 0.781540
823.00 0.764060
838.00 0.702940
778.00 0.796080
903.00 0.000000
788.00 0.766380
898.00 0.006620
913.00 0.008100
853.00 0.638460
868.00 0.530020
848.00 0.647340
883.00 0.189000
798.00 0.795320
793.00 0.785800
888.00 0.096820
783.00 0.774300
878.00 0.233460
828.00 0.769880
908.00 0.000000
858.00 0.629780
863.00 0.605760
