# Wavenumber	Transmittence
3298.00	0.924920
3253.00	0.900520
3303.00	0.924900
3233.00	0.899580
3268.00	0.910820
3213.00	0.877380
3293.00	0.924660
3248.00	0.901860
3188.00	0.829000
3238.00	0.901400
3278.00	0.921440
3308.00	0.924260
3203.00	0.861000
3283.00	0.923060
3178.00	0.811160
3218.00	0.883900
3183.00	0.817680
3223.00	0.889800
3208.00	0.869780
3288.00	0.924060
3243.00	0.901860
3263.00	0.902140
3198.00	0.851660
3273.00	0.918280
3258.00	0.899220
3228.00	0.895180
3193.00	0.842300
