# Wavenumber,Transmittence
3258.00,0.899220
3288.00,0.924060
3338.00,0.919920
3298.00,0.924920
3358.00,0.921920
3313.00,0.923400
3323.00,0.920920
3253.00,0.900520
3243.00,0.901860
3303.00,0.924900
3283.00,0.923060
3263.00,0.902140
3293.00,0.924660
3328.00,0.920380
3273.00,0.918280
3353.00,0.921340
3278.00,0.921440
3308.00,0.924260
3343.00,0.920200
3248.00,0.901860
3348.00,0.920800
3268.00,0.910820
3333.00,0.920120
3318.00,0.922180
