# Wavenumber Transmittence
468.00 0.949560
448.00 0.874140
403.00 0.771160
483.00 0.942020
493.00 0.950040
428.00 0.849780
408.00 0.783920
473.00 0.949980
418.00 0.825480
423.00 0.840660
478.00 0.945800
488.00 0.943380
443.00 0.848700
438.00 0.838800
463.00 0.942020
433.00 0.846880
498.00 0.963340
413.00 0.809500
453.00 0.898200
458.00 0.922520
