# Wavenumber Transmittence
533.00 0.923380
573.00 0.869620
578.00 0.897060
528.00 0.950260
583.00 0.903520
598.00 0.850040
538.00 0.876660
593.00 0.880000
588.00 0.899200
613.00 0.568440
603.00 0.802140
548.00 0.628080
523.00 0.955580
518.00 0.960580
618.00 0.423320
563.00 0.766400
558.00 0.696380
543.00 0.757220
608.00 0.719520
568.00 0.813040
553.00 0.604740
