# Wavenumber	Transmittence
1198.00	0.737460
1228.00	0.770480
1243.00	0.732320
1248.00	0.699680
1313.00	0.579980
1203.00	0.731200
1308.00	0.586120
1218.00	0.708200
1268.00	0.603100
1298.00	0.497280
1293.00	0.487600
1238.00	0.764300
1253.00	0.672620
1303.00	0.548680
1213.00	0.736500
1288.00	0.507500
1263.00	0.585940
1193.00	0.729540
1233.00	0.777460
1258.00	0.627020
1188.00	0.729740
1283.00	0.564080
1223.00	0.729260
1278.00	0.623640
1208.00	0.733820
1273.00	0.638200
