# Wavenumber	Transmittence
3483.00	0.931900
3473.00	0.931980
3468.00	0.932000
3448.00	0.930160
3398.00	0.926720
3423.00	0.924900
3443.00	0.929040
3408.00	0.926000
3438.00	0.927960
3498.00	0.932520
3383.00	0.925020
3378.00	0.924160
3493.00	0.932220
3488.00	0.931960
3403.00	0.926380
3388.00	0.925860
3413.00	0.925500
3453.00	0.931280
3393.00	0.926660
3463.00	0.932000
3478.00	0.931900
3428.00	0.925820
3458.00	0.932060
3418.00	0.925060
3433.00	0.926900
