# Wavenumber Transmittence
603.00 0.802140
628.00 0.200780
663.00 0.734280
683.00 0.867400
633.00 0.192220
608.00 0.719520
588.00 0.899200
673.00 0.833600
568.00 0.813040
573.00 0.869620
578.00 0.897060
653.00 0.606540
688.00 0.866820
648.00 0.473640
623.00 0.278580
618.00 0.423320
613.00 0.568440
598.00 0.850040
668.00 0.794980
678.00 0.856640
693.00 0.856040
643.00 0.355060
638.00 0.240280
593.00 0.880000
658.00 0.696980
583.00 0.903520
