# Wavenumber,Transmittence
1938.00,0.935920
1918.00,0.925340
1898.00,0.916580
1953.00,0.919660
1908.00,0.925380
1883.00,0.905060
1903.00,0.923560
1923.00,0.927740
1913.00,0.924740
1943.00,0.933580
1863.00,0.915320
1928.00,0.931500
1858.00,0.915280
1873.00,0.914480
1868.00,0.914840
1948.00,0.928500
1878.00,0.908780
1933.00,0.936200
1888.00,0.905620
1893.00,0.909760
