# Wavenumber Transmittence
758.00 0.619080
683.00 0.867400
628.00 0.200780
698.00 0.837460
673.00 0.833600
643.00 0.355060
738.00 0.642620
633.00 0.192220
748.00 0.661460
638.00 0.240280
653.00 0.606540
648.00 0.473640
703.00 0.795620
708.00 0.682300
668.00 0.794980
728.00 0.314140
733.00 0.492340
693.00 0.856040
753.00 0.607920
743.00 0.669540
663.00 0.734280
658.00 0.696980
723.00 0.167980
718.00 0.282020
713.00 0.475280
678.00 0.856640
688.00 0.866820
