# Wavenumber	Transmittence
1818.00	0.456060
1858.00	0.915280
1888.00	0.905620
1863.00	0.915320
1808.00	0.460740
1868.00	0.914840
1878.00	0.908780
1873.00	0.914480
1848.00	0.892980
1883.00	0.905060
1798.00	0.783180
1788.00	0.887320
1783.00	0.899780
1838.00	0.845420
1773.00	0.914020
1778.00	0.906720
1803.00	0.619460
1823.00	0.628660
1813.00	0.409300
1843.00	0.875260
1853.00	0.904820
1833.00	0.799260
1828.00	0.731060
1793.00	0.863300
