# Wavenumber Transmittence
863.00 0.605760
778.00 0.796080
798.00 0.795320
768.00 0.742980
793.00 0.785800
843.00 0.665360
803.00 0.781540
873.00 0.375400
848.00 0.647340
763.00 0.679900
818.00 0.735980
828.00 0.769880
858.00 0.629780
823.00 0.764060
833.00 0.757620
838.00 0.702940
813.00 0.723640
868.00 0.530020
808.00 0.737280
758.00 0.619080
783.00 0.774300
853.00 0.638460
788.00 0.766380
773.00 0.789160
