# Wavenumber,Transmittence
3158.00,0.794300
3243.00,0.901860
3263.00,0.902140
3168.00,0.802300
3198.00,0.851660
3203.00,0.861000
3193.00,0.842300
3163.00,0.798300
3223.00,0.889800
3238.00,0.901400
3213.00,0.877380
3173.00,0.806300
3208.00,0.869780
3178.00,0.811160
3188.00,0.829000
3248.00,0.901860
3258.00,0.899220
3183.00,0.817680
3228.00,0.895180
3233.00,0.899580
3153.00,0.790220
3218.00,0.883900
3253.00,0.900520
