# Wavenumber	Transmittence
828.00	0.769880
868.00	0.530020
848.00	0.647340
853.00	0.638460
803.00	0.781540
793.00	0.785800
808.00	0.737280
788.00	0.766380
813.00	0.723640
843.00	0.665360
823.00	0.764060
778.00	0.796080
783.00	0.774300
798.00	0.795320
858.00	0.629780
773.00	0.789160
863.00	0.605760
838.00	0.702940
833.00	0.757620
818.00	0.735980
