# Wavenumber	Transmittence
883.00	0.189000
868.00	0.530020
888.00	0.096820
833.00	0.757620
898.00	0.006620
843.00	0.665360
818.00	0.735980
863.00	0.605760
808.00	0.737280
793.00	0.785800
853.00	0.638460
903.00	0.000000
838.00	0.702940
893.00	0.028740
873.00	0.375400
803.00	0.781540
823.00	0.764060
813.00	0.723640
848.00	0.647340
798.00	0.795320
788.00	0.766380
908.00	0.000000
828.00	0.769880
858.00	0.629780
878.00	0.233460
