# Wavenumber,Transmittence
2533.00,0.854980
2558.00,0.810440
2593.00,0.772120
2573.00,0.793880
2523.00,0.867640
2498.00,0.896620
2548.00,0.824200
2513.00,0.879700
2543.00,0.831960
2538.00,0.843560
2518.00,0.870140
2588.00,0.780260
2503.00,0.892480
2488.00,0.902660
2493.00,0.899920
2583.00,0.785300
2563.00,0.804220
2598.00,0.764120
2528.00,0.862980
2578.00,0.789300
2568.00,0.798580
2483.00,0.905320
2553.00,0.817120
2508.00,0.887380
2478.00,0.907820
