# Wavenumber	Transmittence
443.00	0.848700
458.00	0.922520
463.00	0.942020
408.00	0.783920
403.00	0.771160
433.00	0.846880
428.00	0.849780
498.00	0.963340
508.00	0.967200
518.00	0.960580
448.00	0.874140
528.00	0.950260
478.00	0.945800
488.00	0.943380
473.00	0.949980
438.00	0.838800
413.00	0.809500
513.00	0.964220
423.00	0.840660
453.00	0.898200
503.00	0.969080
483.00	0.942020
468.00	0.949560
418.00	0.825480
523.00	0.955580
493.00	0.950040
