# Wavenumber,Transmittence
3048.00,0.116000
2993.00,0.051460
3038.00,0.230000
3068.00,0.013240
2998.00,0.194180
3093.00,0.627860
3063.00,0.019160
3078.00,0.405460
3023.00,0.346560
3073.00,0.099560
3083.00,0.464320
3033.00,0.286940
3053.00,0.069360
3013.00,0.301140
3058.00,0.043120
3043.00,0.173000
3088.00,0.523160
3018.00,0.333940
3008.00,0.265720
3003.00,0.230340
3028.00,0.343620
