# Wavenumber	Transmittence
478.00	0.945800
408.00	0.783920
483.00	0.942020
428.00	0.849780
498.00	0.963340
448.00	0.874140
443.00	0.848700
438.00	0.838800
453.00	0.898200
493.00	0.950040
458.00	0.922520
413.00	0.809500
403.00	0.771160
418.00	0.825480
468.00	0.949560
473.00	0.949980
488.00	0.943380
503.00	0.969080
423.00	0.840660
513.00	0.964220
433.00	0.846880
518.00	0.960580
508.00	0.967200
463.00	0.942020
