# Wavenumber Transmittence
1698.00 0.847680
1728.00 0.900280
1648.00 0.442200
1693.00 0.839140
1678.00 0.837220
1668.00 0.808000
1733.00 0.903820
1658.00 0.750560
1713.00 0.885600
1748.00 0.912740
1708.00 0.882440
1703.00 0.873360
1688.00 0.847560
1718.00 0.891240
1663.00 0.778260
1738.00 0.909520
1673.00 0.824660
1723.00 0.895780
1683.00 0.845840
1743.00 0.912520
1653.00 0.709540
