# Wavenumber,Transmittence
643.00,0.355060
618.00,0.423320
663.00,0.734280
683.00,0.867400
583.00,0.903520
688.00,0.866820
608.00,0.719520
668.00,0.794980
593.00,0.880000
678.00,0.856640
673.00,0.833600
578.00,0.897060
623.00,0.278580
653.00,0.606540
648.00,0.473640
573.00,0.869620
568.00,0.813040
658.00,0.696980
693.00,0.856040
598.00,0.850040
638.00,0.240280
633.00,0.192220
588.00,0.899200
628.00,0.200780
603.00,0.802140
613.00,0.568440
