# Wavenumber	Transmittence
2438.00	0.906560
2453.00	0.912080
2433.00	0.904540
2428.00	0.903460
2418.00	0.903880
2348.00	0.886980
2403.00	0.908920
2343.00	0.886860
2353.00	0.887220
2368.00	0.891440
2388.00	0.909000
2383.00	0.904940
2378.00	0.899380
2443.00	0.908580
2423.00	0.903180
2413.00	0.905240
2358.00	0.887740
2373.00	0.895280
2398.00	0.910280
2408.00	0.907160
2448.00	0.910380
2363.00	0.889240
2393.00	0.910800
