# Wavenumber Transmittence
558.00 0.696380
593.00 0.880000
583.00 0.903520
618.00 0.423320
638.00 0.240280
548.00 0.628080
663.00 0.734280
598.00 0.850040
633.00 0.192220
623.00 0.278580
543.00 0.757220
648.00 0.473640
553.00 0.604740
573.00 0.869620
608.00 0.719520
568.00 0.813040
628.00 0.200780
653.00 0.606540
578.00 0.897060
533.00 0.923380
563.00 0.766400
603.00 0.802140
613.00 0.568440
643.00 0.355060
658.00 0.696980
538.00 0.876660
588.00 0.899200
