# Wavenumber,Transmittence
2293.00,0.896120
2283.00,0.894180
2233.00,0.912420
2288.00,0.895020
2303.00,0.898800
2258.00,0.895420
2243.00,0.906420
2253.00,0.899620
2248.00,0.903160
2238.00,0.909660
2313.00,0.898400
2323.00,0.892460
2338.00,0.887380
2268.00,0.892720
2308.00,0.899820
2333.00,0.888080
2273.00,0.893020
2298.00,0.897380
2263.00,0.893440
2328.00,0.889860
2278.00,0.893420
2318.00,0.895560
