# Wavenumber	Transmittence
648.00	0.473640
548.00	0.628080
623.00	0.278580
598.00	0.850040
573.00	0.869620
603.00	0.802140
633.00	0.192220
643.00	0.355060
628.00	0.200780
588.00	0.899200
558.00	0.696380
593.00	0.880000
563.00	0.766400
618.00	0.423320
568.00	0.813040
578.00	0.897060
608.00	0.719520
613.00	0.568440
638.00	0.240280
653.00	0.606540
583.00	0.903520
553.00	0.604740
