# Wavenumber Transmittence
458.00 0.922520
483.00 0.942020
403.00 0.771160
453.00 0.898200
408.00 0.783920
448.00 0.874140
443.00 0.848700
488.00 0.943380
493.00 0.950040
433.00 0.846880
413.00 0.809500
438.00 0.838800
418.00 0.825480
473.00 0.949980
423.00 0.840660
498.00 0.963340
428.00 0.849780
463.00 0.942020
468.00 0.949560
478.00 0.945800
