# Wavenumber Transmittence
3088.00 0.523160
3073.00 0.099560
3018.00 0.333940
3098.00 0.682720
3078.00 0.405460
3048.00 0.116000
3128.00 0.763820
3053.00 0.069360
3118.00 0.746340
3108.00 0.719040
3123.00 0.755640
3038.00 0.230000
3083.00 0.464320
3003.00 0.230340
3028.00 0.343620
3058.00 0.043120
3023.00 0.346560
3103.00 0.700580
3008.00 0.265720
3068.00 0.013240
3093.00 0.627860
3033.00 0.286940
3013.00 0.301140
3043.00 0.173000
3113.00 0.733960
3063.00 0.019160
