# Wavenumber,Transmittence
1288.00,0.507500
1248.00,0.699680
1323.00,0.586300
1308.00,0.586120
1293.00,0.487600
1343.00,0.440060
1263.00,0.585940
1253.00,0.672620
1278.00,0.623640
1283.00,0.564080
1333.00,0.488520
1303.00,0.548680
1298.00,0.497280
1313.00,0.579980
1328.00,0.562720
1258.00,0.627020
1273.00,0.638200
1318.00,0.579540
1268.00,0.603100
1338.00,0.440960
