# Wavenumber,Transmittence
1153.00,0.750840
1113.00,0.605700
1148.00,0.728900
1163.00,0.782640
1178.00,0.773920
1088.00,0.716240
1118.00,0.662200
1128.00,0.698740
1073.00,0.636020
1078.00,0.648980
1098.00,0.662220
1123.00,0.705980
1093.00,0.716120
1068.00,0.630240
1103.00,0.594500
1143.00,0.690740
1168.00,0.795920
1133.00,0.672480
1083.00,0.672640
1058.00,0.587800
1158.00,0.764820
1138.00,0.672820
1173.00,0.793660
1108.00,0.561260
1063.00,0.618180
