# Wavenumber,Transmittence
3413.00,0.925500
3388.00,0.925860
3348.00,0.920800
3393.00,0.926660
3358.00,0.921920
3353.00,0.921340
3378.00,0.924160
3363.00,0.922500
3383.00,0.925020
3408.00,0.926000
3398.00,0.926720
3333.00,0.920120
3338.00,0.919920
3343.00,0.920200
3403.00,0.926380
3368.00,0.923000
3328.00,0.920380
3323.00,0.920920
3318.00,0.922180
3373.00,0.923500
