# Wavenumber Transmittence
633.00 0.192220
643.00 0.355060
513.00 0.964220
553.00 0.604740
558.00 0.696380
543.00 0.757220
628.00 0.200780
583.00 0.903520
598.00 0.850040
638.00 0.240280
603.00 0.802140
548.00 0.628080
593.00 0.880000
568.00 0.813040
523.00 0.955580
528.00 0.950260
618.00 0.423320
588.00 0.899200
573.00 0.869620
533.00 0.923380
608.00 0.719520
613.00 0.568440
578.00 0.897060
538.00 0.876660
518.00 0.960580
563.00 0.766400
623.00 0.278580
