# Wavenumber,Transmittence
493.00,0.950040
453.00,0.898200
433.00,0.846880
483.00,0.942020
478.00,0.945800
443.00,0.848700
438.00,0.838800
413.00,0.809500
403.00,0.771160
458.00,0.922520
463.00,0.942020
498.00,0.963340
423.00,0.840660
473.00,0.949980
408.00,0.783920
488.00,0.943380
428.00,0.849780
508.00,0.967200
418.00,0.825480
468.00,0.949560
448.00,0.874140
503.00,0.969080
