# Wavenumber,Transmittence
1793.00,0.863300
1773.00,0.914020
1743.00,0.912520
1758.00,0.917680
1753.00,0.914400
1728.00,0.900280
1733.00,0.903820
1813.00,0.409300
1798.00,0.783180
1783.00,0.899780
1828.00,0.731060
1823.00,0.628660
1748.00,0.912740
1738.00,0.909520
1778.00,0.906720
1818.00,0.456060
1723.00,0.895780
1838.00,0.845420
1803.00,0.619460
1833.00,0.799260
1763.00,0.918620
1788.00,0.887320
1808.00,0.460740
1768.00,0.917640
