# Wavenumber,Transmittence
648.00,0.473640
683.00,0.867400
663.00,0.734280
668.00,0.794980
613.00,0.568440
623.00,0.278580
638.00,0.240280
688.00,0.866820
608.00,0.719520
603.00,0.802140
633.00,0.192220
628.00,0.200780
693.00,0.856040
658.00,0.696980
678.00,0.856640
653.00,0.606540
598.00,0.850040
643.00,0.355060
673.00,0.833600
618.00,0.423320
