# Wavenumber Transmittence
3498.00 0.932520
3503.00 0.932820
3508.00 0.933120
3478.00 0.931900
3473.00 0.931980
3493.00 0.932220
3523.00 0.934200
3528.00 0.934700
3448.00 0.930160
3458.00 0.932060
3533.00 0.935100
3543.00 0.936060
3453.00 0.931280
3483.00 0.931900
3443.00 0.929040
3488.00 0.931960
3518.00 0.933800
3538.00 0.935560
3513.00 0.933420
3468.00 0.932000
3463.00 0.932000
