# Wavenumber Transmittence
1373.00 0.080600
1383.00 0.464820
1368.00 0.236680
1358.00 0.439920
1333.00 0.488520
1348.00 0.451640
1363.00 0.366740
1288.00 0.507500
1378.00 0.265000
1343.00 0.440060
1303.00 0.548680
1388.00 0.508960
1293.00 0.487600
1313.00 0.579980
1318.00 0.579540
1323.00 0.586300
1298.00 0.497280
1328.00 0.562720
1393.00 0.505780
1353.00 0.469620
1338.00 0.440960
1308.00 0.586120
