# Wavenumber Transmittence
893.00 0.028740
938.00 0.454160
928.00 0.292200
888.00 0.096820
903.00 0.000000
933.00 0.378700
998.00 0.068820
923.00 0.205800
953.00 0.488880
973.00 0.133100
968.00 0.222560
978.00 0.050020
943.00 0.503620
948.00 0.519780
1003.00 0.175940
963.00 0.312000
918.00 0.099720
958.00 0.401440
993.00 0.009320
988.00 0.005060
908.00 0.000000
983.00 0.013940
898.00 0.006620
913.00 0.008100
883.00 0.189000
