# Wavenumber Transmittence
3773.00 0.904620
3713.00 0.913640
3668.00 0.912680
3758.00 0.904380
3683.00 0.910140
3763.00 0.904540
3728.00 0.904760
3753.00 0.904180
3653.00 0.912660
3693.00 0.907880
3748.00 0.903880
3723.00 0.910440
3663.00 0.912920
3743.00 0.902380
3708.00 0.912760
3673.00 0.912480
3688.00 0.908480
3698.00 0.908800
3738.00 0.897360
3768.00 0.904600
3703.00 0.910520
3658.00 0.913180
3648.00 0.909420
3718.00 0.913340
3678.00 0.911820
3733.00 0.897780
