# Wavenumber,Transmittence
2113.00,0.927600
2088.00,0.925120
2148.00,0.916820
2108.00,0.927700
2118.00,0.927280
2103.00,0.927700
2153.00,0.915100
2068.00,0.922760
2138.00,0.921660
2133.00,0.923900
2063.00,0.921600
2083.00,0.922820
2073.00,0.922780
2123.00,0.926480
2098.00,0.927620
2128.00,0.925460
2143.00,0.919200
2093.00,0.927340
2058.00,0.919000
2078.00,0.922700
