# Wavenumber,Transmittence
3663.00,0.912920
3618.00,0.907220
3648.00,0.909420
3623.00,0.907840
3658.00,0.913180
3633.00,0.911860
3628.00,0.910420
3638.00,0.910500
3643.00,0.909000
3588.00,0.925720
3653.00,0.912660
3603.00,0.913620
3583.00,0.929280
3593.00,0.921600
3578.00,0.932220
3608.00,0.910100
3613.00,0.907420
3598.00,0.917520
3668.00,0.912680
3673.00,0.912480
