# Wavenumber Transmittence
698.00 0.837460
663.00 0.734280
678.00 0.856640
668.00 0.794980
653.00 0.606540
638.00 0.240280
613.00 0.568440
673.00 0.833600
623.00 0.278580
693.00 0.856040
643.00 0.355060
648.00 0.473640
628.00 0.200780
688.00 0.866820
683.00 0.867400
633.00 0.192220
618.00 0.423320
608.00 0.719520
658.00 0.696980
603.00 0.802140
