# Wavenumber Transmittence
2248.00 0.903160
2168.00 0.911500
2198.00 0.912300
2238.00 0.909660
2228.00 0.913360
2148.00 0.916820
2193.00 0.911920
2183.00 0.909940
2153.00 0.915100
2213.00 0.911820
2218.00 0.912360
2173.00 0.910520
2208.00 0.911700
2233.00 0.912420
2163.00 0.912500
2203.00 0.911800
2178.00 0.909900
2223.00 0.913020
2143.00 0.919200
2188.00 0.911020
2158.00 0.913580
2243.00 0.906420
