# Wavenumber	Transmittence
973.00	0.133100
998.00	0.068820
993.00	0.009320
938.00	0.454160
958.00	0.401440
1028.00	0.577260
928.00	0.292200
963.00	0.312000
983.00	0.013940
988.00	0.005060
1023.00	0.567580
1043.00	0.556240
1008.00	0.306100
953.00	0.488880
933.00	0.378700
948.00	0.519780
1038.00	0.575360
1053.00	0.556440
1003.00	0.175940
943.00	0.503620
1013.00	0.442080
978.00	0.050020
968.00	0.222560
1018.00	0.512160
1033.00	0.577640
1048.00	0.531900
