# Wavenumber Transmittence
708.00 0.682300
703.00 0.795620
633.00 0.192220
613.00 0.568440
683.00 0.867400
673.00 0.833600
608.00 0.719520
658.00 0.696980
618.00 0.423320
653.00 0.606540
688.00 0.866820
663.00 0.734280
628.00 0.200780
603.00 0.802140
693.00 0.856040
598.00 0.850040
638.00 0.240280
623.00 0.278580
643.00 0.355060
668.00 0.794980
698.00 0.837460
648.00 0.473640
678.00 0.856640
