# Wavenumber Transmittence
758.00 0.619080
783.00 0.774300
828.00 0.769880
798.00 0.795320
838.00 0.702940
823.00 0.764060
808.00 0.737280
733.00 0.492340
773.00 0.789160
723.00 0.167980
748.00 0.661460
763.00 0.679900
743.00 0.669540
728.00 0.314140
778.00 0.796080
753.00 0.607920
803.00 0.781540
813.00 0.723640
843.00 0.665360
793.00 0.785800
718.00 0.282020
738.00 0.642620
768.00 0.742980
788.00 0.766380
833.00 0.757620
818.00 0.735980
