# Wavenumber Transmittence
1218.00 0.708200
1228.00 0.770480
1213.00 0.736500
1253.00 0.672620
1233.00 0.777460
1238.00 0.764300
1208.00 0.733820
1203.00 0.731200
1223.00 0.729260
1288.00 0.507500
1268.00 0.603100
1263.00 0.585940
1243.00 0.732320
1273.00 0.638200
1248.00 0.699680
1298.00 0.497280
1293.00 0.487600
1278.00 0.623640
1258.00 0.627020
1283.00 0.564080
1198.00 0.737460
