# Wavenumber	Transmittence
828.00	0.769880
938.00	0.454160
843.00	0.665360
903.00	0.000000
858.00	0.629780
948.00	0.519780
838.00	0.702940
868.00	0.530020
908.00	0.000000
958.00	0.401440
888.00	0.096820
818.00	0.735980
913.00	0.008100
928.00	0.292200
918.00	0.099720
898.00	0.006620
943.00	0.503620
848.00	0.647340
933.00	0.378700
823.00	0.764060
923.00	0.205800
878.00	0.233460
893.00	0.028740
883.00	0.189000
953.00	0.488880
863.00	0.605760
873.00	0.375400
833.00	0.757620
853.00	0.638460
