# Wavenumber	Transmittence
1788.00	0.887320
1813.00	0.409300
1838.00	0.845420
1808.00	0.460740
1843.00	0.875260
1753.00	0.914400
1828.00	0.731060
1818.00	0.456060
1748.00	0.912740
1758.00	0.917680
1803.00	0.619460
1778.00	0.906720
1833.00	0.799260
1798.00	0.783180
1773.00	0.914020
1768.00	0.917640
1823.00	0.628660
1763.00	0.918620
1783.00	0.899780
1793.00	0.863300
