# Wavenumber,Transmittence
403.00,0.771160
428.00,0.849780
513.00,0.964220
468.00,0.949560
463.00,0.942020
473.00,0.949980
418.00,0.825480
518.00,0.960580
438.00,0.838800
433.00,0.846880
483.00,0.942020
493.00,0.950040
448.00,0.874140
413.00,0.809500
508.00,0.967200
408.00,0.783920
498.00,0.963340
458.00,0.922520
503.00,0.969080
443.00,0.848700
488.00,0.943380
478.00,0.945800
453.00,0.898200
423.00,0.840660
