# Wavenumber Transmittence
3383.00 0.925020
3423.00 0.924900
3368.00 0.923000
3418.00 0.925060
3428.00 0.925820
3388.00 0.925860
3393.00 0.926660
3338.00 0.919920
3358.00 0.921920
3353.00 0.921340
3438.00 0.927960
3373.00 0.923500
3378.00 0.924160
3403.00 0.926380
3363.00 0.922500
3343.00 0.920200
3348.00 0.920800
3333.00 0.920120
3398.00 0.926720
3408.00 0.926000
3413.00 0.925500
3433.00 0.926900
