# Wavenumber	Transmittence
2168.00	0.911500
2123.00	0.926480
2188.00	0.911020
2153.00	0.915100
2128.00	0.925460
2103.00	0.927700
2178.00	0.909900
2138.00	0.921660
2113.00	0.927600
2118.00	0.927280
2143.00	0.919200
2193.00	0.911920
2163.00	0.912500
2173.00	0.910520
2098.00	0.927620
2133.00	0.923900
2148.00	0.916820
2183.00	0.909940
2158.00	0.913580
2108.00	0.927700
