# Wavenumber,Transmittence
1593.00,0.815120
1543.00,0.751360
1608.00,0.660640
1603.00,0.714200
1553.00,0.772280
1623.00,0.372080
1558.00,0.790680
1538.00,0.743080
1633.00,0.014460
1613.00,0.634280
1598.00,0.793320
1618.00,0.589860
1548.00,0.762360
1573.00,0.835000
1638.00,0.038180
1578.00,0.835840
1583.00,0.833940
1568.00,0.829900
1588.00,0.828740
1628.00,0.141000
1563.00,0.814220
