# Wavenumber Transmittence
3473.00 0.931980
3408.00 0.926000
3468.00 0.932000
3433.00 0.926900
3508.00 0.933120
3493.00 0.932220
3518.00 0.933800
3428.00 0.925820
3418.00 0.925060
3513.00 0.933420
3478.00 0.931900
3453.00 0.931280
3438.00 0.927960
3463.00 0.932000
3458.00 0.932060
3403.00 0.926380
3413.00 0.925500
3488.00 0.931960
3503.00 0.932820
3448.00 0.930160
3443.00 0.929040
3483.00 0.931900
3498.00 0.932520
3423.00 0.924900
