# Wavenumber	Transmittence
3178.00	0.811160
3093.00	0.627860
3133.00	0.770080
3078.00	0.405460
3083.00	0.464320
3148.00	0.785800
3168.00	0.802300
3143.00	0.781380
3113.00	0.733960
3123.00	0.755640
3163.00	0.798300
3128.00	0.763820
3173.00	0.806300
3188.00	0.829000
3098.00	0.682720
3138.00	0.776260
3088.00	0.523160
3153.00	0.790220
3183.00	0.817680
3108.00	0.719040
3118.00	0.746340
3103.00	0.700580
3158.00	0.794300
