# Wavenumber Transmittence
918.00 0.099720
828.00 0.769880
898.00 0.006620
868.00 0.530020
908.00 0.000000
923.00 0.205800
813.00 0.723640
893.00 0.028740
883.00 0.189000
858.00 0.629780
853.00 0.638460
833.00 0.757620
903.00 0.000000
808.00 0.737280
838.00 0.702940
823.00 0.764060
878.00 0.233460
913.00 0.008100
818.00 0.735980
928.00 0.292200
843.00 0.665360
873.00 0.375400
863.00 0.605760
848.00 0.647340
888.00 0.096820
