# Wavenumber,Transmittence
1623.00,0.372080
1583.00,0.833940
1653.00,0.709540
1603.00,0.714200
1643.00,0.252280
1608.00,0.660640
1563.00,0.814220
1568.00,0.829900
1663.00,0.778260
1578.00,0.835840
1673.00,0.824660
1668.00,0.808000
1593.00,0.815120
1638.00,0.038180
1658.00,0.750560
1633.00,0.014460
1628.00,0.141000
1618.00,0.589860
1613.00,0.634280
1648.00,0.442200
1598.00,0.793320
1573.00,0.835000
1588.00,0.828740
