# Wavenumber Transmittence
508.00 0.967200
553.00 0.604740
478.00 0.945800
503.00 0.969080
538.00 0.876660
523.00 0.955580
558.00 0.696380
543.00 0.757220
488.00 0.943380
513.00 0.964220
518.00 0.960580
528.00 0.950260
548.00 0.628080
533.00 0.923380
563.00 0.766400
573.00 0.869620
493.00 0.950040
498.00 0.963340
483.00 0.942020
568.00 0.813040
