# Wavenumber Transmittence
933.00 0.378700
943.00 0.503620
978.00 0.050020
878.00 0.233460
908.00 0.000000
903.00 0.000000
863.00 0.605760
888.00 0.096820
898.00 0.006620
918.00 0.099720
913.00 0.008100
873.00 0.375400
988.00 0.005060
953.00 0.488880
883.00 0.189000
973.00 0.133100
963.00 0.312000
858.00 0.629780
968.00 0.222560
958.00 0.401440
948.00 0.519780
923.00 0.205800
983.00 0.013940
893.00 0.028740
868.00 0.530020
928.00 0.292200
938.00 0.454160
