# Wavenumber	Transmittence
3473.00	0.931980
3558.00	0.938460
3493.00	0.932220
3533.00	0.935100
3518.00	0.933800
3508.00	0.933120
3553.00	0.938140
3538.00	0.935560
3523.00	0.934200
3488.00	0.931960
3503.00	0.932820
3563.00	0.937400
3478.00	0.931900
3548.00	0.937060
3498.00	0.932520
3513.00	0.933420
3528.00	0.934700
3483.00	0.931900
3468.00	0.932000
3543.00	0.936060
