# Wavenumber Transmittence
1008.00 0.306100
1063.00 0.618180
1043.00 0.556240
1048.00 0.531900
1028.00 0.577260
973.00 0.133100
1023.00 0.567580
1003.00 0.175940
963.00 0.312000
998.00 0.068820
988.00 0.005060
1053.00 0.556440
983.00 0.013940
1068.00 0.630240
1013.00 0.442080
1073.00 0.636020
1033.00 0.577640
1078.00 0.648980
1058.00 0.587800
993.00 0.009320
958.00 0.401440
968.00 0.222560
1018.00 0.512160
978.00 0.050020
1038.00 0.575360
