# Wavenumber	Transmittence
558.00	0.696380
533.00	0.923380
488.00	0.943380
453.00	0.898200
433.00	0.846880
528.00	0.950260
468.00	0.949560
438.00	0.838800
463.00	0.942020
543.00	0.757220
483.00	0.942020
538.00	0.876660
563.00	0.766400
493.00	0.950040
548.00	0.628080
473.00	0.949980
518.00	0.960580
443.00	0.848700
503.00	0.969080
458.00	0.922520
428.00	0.849780
448.00	0.874140
478.00	0.945800
513.00	0.964220
508.00	0.967200
553.00	0.604740
498.00	0.963340
523.00	0.955580
