# Wavenumber	Transmittence
2663.00	0.641640
2588.00	0.780260
2578.00	0.789300
2603.00	0.756500
2668.00	0.644860
2683.00	0.692060
2608.00	0.749120
2613.00	0.741900
2598.00	0.764120
2638.00	0.692800
2643.00	0.674800
2673.00	0.660540
2583.00	0.785300
2633.00	0.710800
2618.00	0.734860
2593.00	0.772120
2678.00	0.681720
2648.00	0.656940
2653.00	0.643880
2628.00	0.723780
2658.00	0.640700
2623.00	0.728180
