# Wavenumber,Transmittence
3658.00,0.913180
3743.00,0.902380
3663.00,0.912920
3653.00,0.912660
3703.00,0.910520
3673.00,0.912480
3708.00,0.912760
3768.00,0.904600
3763.00,0.904540
3688.00,0.908480
3683.00,0.910140
3693.00,0.907880
3733.00,0.897780
3728.00,0.904760
3678.00,0.911820
3723.00,0.910440
3738.00,0.897360
3713.00,0.913640
3668.00,0.912680
3748.00,0.903880
3753.00,0.904180
3718.00,0.913340
3648.00,0.909420
3758.00,0.904380
3698.00,0.908800
