# Wavenumber	Transmittence
1663.00	0.778260
1623.00	0.372080
1703.00	0.873360
1723.00	0.895780
1713.00	0.885600
1658.00	0.750560
1718.00	0.891240
1683.00	0.845840
1638.00	0.038180
1668.00	0.808000
1673.00	0.824660
1643.00	0.252280
1648.00	0.442200
1618.00	0.589860
1628.00	0.141000
1633.00	0.014460
1678.00	0.837220
1698.00	0.847680
1728.00	0.900280
1708.00	0.882440
1688.00	0.847560
1653.00	0.709540
1693.00	0.839140
