# Wavenumber,Transmittence
1038.00,0.575360
988.00,0.005060
1018.00,0.512160
993.00,0.009320
923.00,0.205800
933.00,0.378700
968.00,0.222560
963.00,0.312000
938.00,0.454160
928.00,0.292200
1033.00,0.577640
1043.00,0.556240
918.00,0.099720
948.00,0.519780
983.00,0.013940
1003.00,0.175940
908.00,0.000000
978.00,0.050020
943.00,0.503620
1023.00,0.567580
958.00,0.401440
998.00,0.068820
1028.00,0.577260
1013.00,0.442080
953.00,0.488880
913.00,0.008100
1008.00,0.306100
973.00,0.133100
