# Wavenumber	Transmittence
763.00	0.679900
888.00	0.096820
783.00	0.774300
863.00	0.605760
883.00	0.189000
773.00	0.789160
873.00	0.375400
843.00	0.665360
803.00	0.781540
838.00	0.702940
798.00	0.795320
788.00	0.766380
858.00	0.629780
833.00	0.757620
848.00	0.647340
853.00	0.638460
818.00	0.735980
778.00	0.796080
868.00	0.530020
813.00	0.723640
768.00	0.742980
793.00	0.785800
828.00	0.769880
808.00	0.737280
823.00	0.764060
893.00	0.028740
878.00	0.233460
