# Wavenumber	Transmittence
613.00	0.568440
568.00	0.813040
548.00	0.628080
538.00	0.876660
563.00	0.766400
583.00	0.903520
628.00	0.200780
618.00	0.423320
523.00	0.955580
498.00	0.963340
513.00	0.964220
578.00	0.897060
623.00	0.278580
518.00	0.960580
633.00	0.192220
603.00	0.802140
508.00	0.967200
528.00	0.950260
553.00	0.604740
558.00	0.696380
573.00	0.869620
493.00	0.950040
593.00	0.880000
503.00	0.969080
598.00	0.850040
543.00	0.757220
588.00	0.899200
533.00	0.923380
608.00	0.719520
