# Wavenumber Transmittence
868.00 0.530020
833.00 0.757620
873.00 0.375400
883.00 0.189000
918.00 0.099720
913.00 0.008100
898.00 0.006620
893.00 0.028740
908.00 0.000000
853.00 0.638460
828.00 0.769880
803.00 0.781540
823.00 0.764060
888.00 0.096820
808.00 0.737280
813.00 0.723640
818.00 0.735980
843.00 0.665360
793.00 0.785800
903.00 0.000000
848.00 0.647340
788.00 0.766380
798.00 0.795320
838.00 0.702940
878.00 0.233460
863.00 0.605760
858.00 0.629780
