# Wavenumber Transmittence
428.00 0.849780
538.00 0.876660
493.00 0.950040
468.00 0.949560
438.00 0.838800
518.00 0.960580
498.00 0.963340
413.00 0.809500
523.00 0.955580
473.00 0.949980
433.00 0.846880
513.00 0.964220
458.00 0.922520
448.00 0.874140
403.00 0.771160
508.00 0.967200
488.00 0.943380
453.00 0.898200
503.00 0.969080
483.00 0.942020
423.00 0.840660
528.00 0.950260
463.00 0.942020
533.00 0.923380
418.00 0.825480
443.00 0.848700
408.00 0.783920
478.00 0.945800
