# Wavenumber	Transmittence
3963.00	0.854040
3948.00	0.861280
3968.00	0.853340
3918.00	0.884200
3893.00	0.887280
3888.00	0.887960
3843.00	0.896780
3923.00	0.883480
3883.00	0.888620
3943.00	0.867500
3903.00	0.885980
3958.00	0.855320
3878.00	0.889260
3928.00	0.881980
3953.00	0.857940
3873.00	0.889920
3908.00	0.885360
3933.00	0.879700
3868.00	0.890560
3898.00	0.886620
3863.00	0.891220
3913.00	0.884780
3938.00	0.874000
3848.00	0.894440
3858.00	0.892060
3853.00	0.892940
