# Wavenumber	Transmittence
1973.00	0.857800
1958.00	0.901060
2028.00	0.905180
1943.00	0.933580
1963.00	0.878940
1953.00	0.919660
2033.00	0.905620
1948.00	0.928500
2013.00	0.914840
1968.00	0.860600
1988.00	0.891940
2023.00	0.906180
2018.00	0.911180
2038.00	0.906980
2008.00	0.917460
1978.00	0.866360
1933.00	0.936200
1993.00	0.909320
2003.00	0.918560
1983.00	0.875900
1938.00	0.935920
1998.00	0.915720
