# Wavenumber	Transmittence
688.00	0.866820
618.00	0.423320
708.00	0.682300
668.00	0.794980
613.00	0.568440
693.00	0.856040
673.00	0.833600
678.00	0.856640
698.00	0.837460
593.00	0.880000
653.00	0.606540
643.00	0.355060
648.00	0.473640
638.00	0.240280
728.00	0.314140
713.00	0.475280
683.00	0.867400
723.00	0.167980
658.00	0.696980
598.00	0.850040
718.00	0.282020
603.00	0.802140
703.00	0.795620
608.00	0.719520
628.00	0.200780
623.00	0.278580
663.00	0.734280
633.00	0.192220
