# Wavenumber	Transmittence
1578.00	0.835840
1543.00	0.751360
1568.00	0.829900
1563.00	0.814220
1618.00	0.589860
1523.00	0.746160
1558.00	0.790680
1573.00	0.835000
1603.00	0.714200
1608.00	0.660640
1583.00	0.833940
1598.00	0.793320
1538.00	0.743080
1533.00	0.739980
1548.00	0.762360
1528.00	0.743420
1593.00	0.815120
1553.00	0.772280
1588.00	0.828740
1613.00	0.634280
