# Wavenumber,Transmittence
1018.00,0.512160
928.00,0.292200
1003.00,0.175940
923.00,0.205800
963.00,0.312000
913.00,0.008100
1008.00,0.306100
958.00,0.401440
988.00,0.005060
1023.00,0.567580
993.00,0.009320
978.00,0.050020
943.00,0.503620
948.00,0.519780
1028.00,0.577260
918.00,0.099720
953.00,0.488880
973.00,0.133100
1013.00,0.442080
968.00,0.222560
933.00,0.378700
983.00,0.013940
938.00,0.454160
998.00,0.068820
