# Wavenumber Transmittence
1358.00 0.439920
1393.00 0.505780
1318.00 0.579540
1373.00 0.080600
1343.00 0.440060
1383.00 0.464820
1363.00 0.366740
1398.00 0.439500
1333.00 0.488520
1368.00 0.236680
1338.00 0.440960
1408.00 0.165780
1348.00 0.451640
1388.00 0.508960
1313.00 0.579980
1328.00 0.562720
1353.00 0.469620
1323.00 0.586300
1378.00 0.265000
1403.00 0.295640
