# Wavenumber	Transmittence
3683.00	0.910140
3728.00	0.904760
3658.00	0.913180
3713.00	0.913640
3673.00	0.912480
3643.00	0.909000
3678.00	0.911820
3738.00	0.897360
3733.00	0.897780
3698.00	0.908800
3693.00	0.907880
3703.00	0.910520
3688.00	0.908480
3668.00	0.912680
3648.00	0.909420
3638.00	0.910500
3723.00	0.910440
3653.00	0.912660
3663.00	0.912920
3718.00	0.913340
3708.00	0.912760
