# Wavenumber	Transmittence
2363.00	0.889240
2408.00	0.907160
2383.00	0.904940
2368.00	0.891440
2413.00	0.905240
2418.00	0.903880
2353.00	0.887220
2423.00	0.903180
2323.00	0.892460
2318.00	0.895560
2373.00	0.895280
2313.00	0.898400
2358.00	0.887740
2328.00	0.889860
2348.00	0.886980
2338.00	0.887380
2378.00	0.899380
2388.00	0.909000
2393.00	0.910800
2333.00	0.888080
2343.00	0.886860
2398.00	0.910280
2403.00	0.908920
