# Wavenumber Transmittence
518.00 0.960580
558.00 0.696380
533.00 0.923380
543.00 0.757220
608.00 0.719520
513.00 0.964220
593.00 0.880000
598.00 0.850040
503.00 0.969080
573.00 0.869620
523.00 0.955580
538.00 0.876660
528.00 0.950260
613.00 0.568440
583.00 0.903520
563.00 0.766400
578.00 0.897060
588.00 0.899200
548.00 0.628080
603.00 0.802140
568.00 0.813040
553.00 0.604740
508.00 0.967200
