# Wavenumber Transmittence
773.00 0.789160
738.00 0.642620
718.00 0.282020
758.00 0.619080
708.00 0.682300
743.00 0.669540
693.00 0.856040
723.00 0.167980
728.00 0.314140
678.00 0.856640
683.00 0.867400
688.00 0.866820
698.00 0.837460
753.00 0.607920
703.00 0.795620
733.00 0.492340
673.00 0.833600
763.00 0.679900
668.00 0.794980
663.00 0.734280
713.00 0.475280
748.00 0.661460
768.00 0.742980
