# Wavenumber Transmittence
458.00 0.922520
418.00 0.825480
403.00 0.771160
498.00 0.963340
433.00 0.846880
428.00 0.849780
453.00 0.898200
493.00 0.950040
468.00 0.949560
488.00 0.943380
413.00 0.809500
483.00 0.942020
448.00 0.874140
423.00 0.840660
408.00 0.783920
473.00 0.949980
463.00 0.942020
443.00 0.848700
438.00 0.838800
478.00 0.945800
