# Wavenumber Transmittence
933.00 0.378700
948.00 0.519780
873.00 0.375400
973.00 0.133100
898.00 0.006620
958.00 0.401440
928.00 0.292200
968.00 0.222560
883.00 0.189000
868.00 0.530020
903.00 0.000000
878.00 0.233460
918.00 0.099720
953.00 0.488880
978.00 0.050020
938.00 0.454160
893.00 0.028740
888.00 0.096820
963.00 0.312000
923.00 0.205800
913.00 0.008100
943.00 0.503620
908.00 0.000000
