# Wavenumber	Transmittence
653.00	0.606540
748.00	0.661460
713.00	0.475280
723.00	0.167980
638.00	0.240280
648.00	0.473640
738.00	0.642620
718.00	0.282020
643.00	0.355060
618.00	0.423320
688.00	0.866820
753.00	0.607920
733.00	0.492340
728.00	0.314140
708.00	0.682300
673.00	0.833600
668.00	0.794980
628.00	0.200780
678.00	0.856640
663.00	0.734280
623.00	0.278580
703.00	0.795620
743.00	0.669540
693.00	0.856040
658.00	0.696980
683.00	0.867400
633.00	0.192220
698.00	0.837460
