# Wavenumber,Transmittence
428.00,0.849780
443.00,0.848700
493.00,0.950040
488.00,0.943380
498.00,0.963340
448.00,0.874140
438.00,0.838800
468.00,0.949560
418.00,0.825480
458.00,0.922520
503.00,0.969080
433.00,0.846880
403.00,0.771160
463.00,0.942020
408.00,0.783920
483.00,0.942020
413.00,0.809500
423.00,0.840660
453.00,0.898200
473.00,0.949980
478.00,0.945800
