# Wavenumber Transmittence
3208.00 0.869780
3248.00 0.901860
3268.00 0.910820
3253.00 0.900520
3193.00 0.842300
3243.00 0.901860
3223.00 0.889800
3233.00 0.899580
3188.00 0.829000
3258.00 0.899220
3263.00 0.902140
3213.00 0.877380
3198.00 0.851660
3273.00 0.918280
3183.00 0.817680
3283.00 0.923060
3238.00 0.901400
3178.00 0.811160
3278.00 0.921440
3203.00 0.861000
3228.00 0.895180
3218.00 0.883900
