# Wavenumber	Transmittence
3348.00	0.920800
3303.00	0.924900
3368.00	0.923000
3333.00	0.920120
3308.00	0.924260
3343.00	0.920200
3338.00	0.919920
3293.00	0.924660
3283.00	0.923060
3298.00	0.924920
3313.00	0.923400
3318.00	0.922180
3328.00	0.920380
3353.00	0.921340
3278.00	0.921440
3373.00	0.923500
3363.00	0.922500
3288.00	0.924060
3358.00	0.921920
3323.00	0.920920
