# Wavenumber Transmittence
558.00 0.696380
518.00 0.960580
618.00 0.423320
548.00 0.628080
528.00 0.950260
623.00 0.278580
523.00 0.955580
628.00 0.200780
588.00 0.899200
633.00 0.192220
553.00 0.604740
538.00 0.876660
598.00 0.850040
653.00 0.606540
638.00 0.240280
573.00 0.869620
643.00 0.355060
543.00 0.757220
578.00 0.897060
613.00 0.568440
593.00 0.880000
583.00 0.903520
563.00 0.766400
568.00 0.813040
533.00 0.923380
603.00 0.802140
608.00 0.719520
658.00 0.696980
648.00 0.473640
