# Wavenumber Transmittence
983.00 0.013940
1028.00 0.577260
1008.00 0.306100
1058.00 0.587800
1018.00 0.512160
928.00 0.292200
1003.00 0.175940
978.00 0.050020
1013.00 0.442080
963.00 0.312000
1043.00 0.556240
973.00 0.133100
1033.00 0.577640
958.00 0.401440
1048.00 0.531900
933.00 0.378700
938.00 0.454160
948.00 0.519780
1053.00 0.556440
1038.00 0.575360
998.00 0.068820
953.00 0.488880
1023.00 0.567580
943.00 0.503620
968.00 0.222560
988.00 0.005060
993.00 0.009320
