# Wavenumber,Transmittence
3683.00,0.910140
3703.00,0.910520
3643.00,0.909000
3753.00,0.904180
3673.00,0.912480
3733.00,0.897780
3718.00,0.913340
3648.00,0.909420
3658.00,0.913180
3743.00,0.902380
3728.00,0.904760
3653.00,0.912660
3708.00,0.912760
3738.00,0.897360
3758.00,0.904380
3668.00,0.912680
3693.00,0.907880
3748.00,0.903880
3663.00,0.912920
3763.00,0.904540
3688.00,0.908480
3723.00,0.910440
3713.00,0.913640
3698.00,0.908800
3678.00,0.911820
