# Wavenumber	Transmittence
3133.00	0.770080
3143.00	0.781380
3128.00	0.763820
3158.00	0.794300
3113.00	0.733960
3093.00	0.627860
3168.00	0.802300
3198.00	0.851660
3153.00	0.790220
3118.00	0.746340
3088.00	0.523160
3138.00	0.776260
3173.00	0.806300
3178.00	0.811160
3098.00	0.682720
3203.00	0.861000
3188.00	0.829000
3148.00	0.785800
3183.00	0.817680
3163.00	0.798300
3108.00	0.719040
3193.00	0.842300
3123.00	0.755640
3103.00	0.700580
