# Wavenumber	Transmittence
443.00	0.848700
418.00	0.825480
403.00	0.771160
463.00	0.942020
478.00	0.945800
503.00	0.969080
428.00	0.849780
508.00	0.967200
458.00	0.922520
433.00	0.846880
453.00	0.898200
423.00	0.840660
523.00	0.955580
498.00	0.963340
408.00	0.783920
448.00	0.874140
513.00	0.964220
473.00	0.949980
413.00	0.809500
493.00	0.950040
468.00	0.949560
518.00	0.960580
488.00	0.943380
438.00	0.838800
483.00	0.942020
