# Wavenumber,Transmittence
573.00,0.869620
618.00,0.423320
613.00,0.568440
598.00,0.850040
633.00,0.192220
653.00,0.606540
583.00,0.903520
603.00,0.802140
593.00,0.880000
648.00,0.473640
658.00,0.696980
548.00,0.628080
553.00,0.604740
673.00,0.833600
623.00,0.278580
643.00,0.355060
663.00,0.734280
568.00,0.813040
608.00,0.719520
588.00,0.899200
668.00,0.794980
578.00,0.897060
563.00,0.766400
638.00,0.240280
558.00,0.696380
628.00,0.200780
