# Wavenumber	Transmittence
553.00	0.604740
578.00	0.897060
543.00	0.757220
513.00	0.964220
593.00	0.880000
508.00	0.967200
528.00	0.950260
573.00	0.869620
598.00	0.850040
503.00	0.969080
538.00	0.876660
498.00	0.963340
523.00	0.955580
533.00	0.923380
588.00	0.899200
563.00	0.766400
583.00	0.903520
518.00	0.960580
568.00	0.813040
558.00	0.696380
548.00	0.628080
