# Wavenumber Transmittence
408.00 0.783920
448.00 0.874140
403.00 0.771160
438.00 0.838800
433.00 0.846880
443.00 0.848700
503.00 0.969080
483.00 0.942020
508.00 0.967200
518.00 0.960580
488.00 0.943380
498.00 0.963340
458.00 0.922520
423.00 0.840660
413.00 0.809500
428.00 0.849780
468.00 0.949560
473.00 0.949980
493.00 0.950040
453.00 0.898200
478.00 0.945800
463.00 0.942020
513.00 0.964220
418.00 0.825480
