# Wavenumber	Transmittence
638.00	0.240280
603.00	0.802140
628.00	0.200780
648.00	0.473640
553.00	0.604740
588.00	0.899200
608.00	0.719520
573.00	0.869620
543.00	0.757220
613.00	0.568440
593.00	0.880000
558.00	0.696380
653.00	0.606540
623.00	0.278580
598.00	0.850040
643.00	0.355060
658.00	0.696980
548.00	0.628080
578.00	0.897060
533.00	0.923380
583.00	0.903520
538.00	0.876660
618.00	0.423320
633.00	0.192220
568.00	0.813040
563.00	0.766400
