# Wavenumber,Transmittence
663.00,0.734280
638.00,0.240280
648.00,0.473640
623.00,0.278580
633.00,0.192220
658.00,0.696980
553.00,0.604740
668.00,0.794980
613.00,0.568440
598.00,0.850040
628.00,0.200780
673.00,0.833600
683.00,0.867400
678.00,0.856640
653.00,0.606540
593.00,0.880000
568.00,0.813040
618.00,0.423320
588.00,0.899200
573.00,0.869620
583.00,0.903520
643.00,0.355060
558.00,0.696380
578.00,0.897060
608.00,0.719520
563.00,0.766400
603.00,0.802140
