# Wavenumber	Transmittence
3323.00	0.920920
3368.00	0.923000
3433.00	0.926900
3318.00	0.922180
3428.00	0.925820
3343.00	0.920200
3408.00	0.926000
3378.00	0.924160
3348.00	0.920800
3373.00	0.923500
3353.00	0.921340
3388.00	0.925860
3363.00	0.922500
3418.00	0.925060
3358.00	0.921920
3328.00	0.920380
3333.00	0.920120
3413.00	0.925500
3403.00	0.926380
3338.00	0.919920
3438.00	0.927960
3393.00	0.926660
3423.00	0.924900
3398.00	0.926720
3443.00	0.929040
3383.00	0.925020
