# Wavenumber	Transmittence
1348.00	0.451640
1333.00	0.488520
1293.00	0.487600
1358.00	0.439920
1343.00	0.440060
1338.00	0.440960
1313.00	0.579980
1278.00	0.623640
1303.00	0.548680
1363.00	0.366740
1288.00	0.507500
1273.00	0.638200
1268.00	0.603100
1308.00	0.586120
1323.00	0.586300
1328.00	0.562720
1318.00	0.579540
1283.00	0.564080
1353.00	0.469620
1298.00	0.497280
