# Wavenumber,Transmittence
713.00,0.475280
658.00,0.696980
708.00,0.682300
728.00,0.314140
698.00,0.837460
673.00,0.833600
688.00,0.866820
648.00,0.473640
668.00,0.794980
693.00,0.856040
683.00,0.867400
633.00,0.192220
638.00,0.240280
718.00,0.282020
723.00,0.167980
703.00,0.795620
663.00,0.734280
678.00,0.856640
643.00,0.355060
653.00,0.606540
