# Wavenumber,Transmittence
3453.00,0.931280
3373.00,0.923500
3358.00,0.921920
3393.00,0.926660
3418.00,0.925060
3413.00,0.925500
3423.00,0.924900
3473.00,0.931980
3408.00,0.926000
3383.00,0.925020
3438.00,0.927960
3468.00,0.932000
3398.00,0.926720
3353.00,0.921340
3428.00,0.925820
3388.00,0.925860
3463.00,0.932000
3443.00,0.929040
3368.00,0.923000
3448.00,0.930160
3483.00,0.931900
3378.00,0.924160
3403.00,0.926380
3433.00,0.926900
3478.00,0.931900
3363.00,0.922500
3458.00,0.932060
