# Wavenumber Transmittence
3703.00 0.910520
3793.00 0.908480
3778.00 0.904600
3693.00 0.907880
3748.00 0.903880
3783.00 0.904540
3698.00 0.908800
3808.00 0.907400
3763.00 0.904540
3803.00 0.909420
3773.00 0.904620
3788.00 0.905680
3688.00 0.908480
3713.00 0.913640
3728.00 0.904760
3708.00 0.912760
3718.00 0.913340
3743.00 0.902380
3798.00 0.910080
3753.00 0.904180
3723.00 0.910440
3738.00 0.897360
3733.00 0.897780
3768.00 0.904600
3758.00 0.904380
