# Wavenumber,Transmittence
3458.00,0.932060
3463.00,0.932000
3438.00,0.927960
3448.00,0.930160
3403.00,0.926380
3383.00,0.925020
3443.00,0.929040
3428.00,0.925820
3388.00,0.925860
3408.00,0.926000
3413.00,0.925500
3453.00,0.931280
3398.00,0.926720
3393.00,0.926660
3368.00,0.923000
3418.00,0.925060
3378.00,0.924160
3363.00,0.922500
3423.00,0.924900
3373.00,0.923500
3433.00,0.926900
