# Wavenumber,Transmittence
1723.00,0.895780
1733.00,0.903820
1828.00,0.731060
1773.00,0.914020
1743.00,0.912520
1813.00,0.409300
1768.00,0.917640
1823.00,0.628660
1758.00,0.917680
1793.00,0.863300
1718.00,0.891240
1713.00,0.885600
1778.00,0.906720
1763.00,0.918620
1788.00,0.887320
1808.00,0.460740
1738.00,0.909520
1803.00,0.619460
1728.00,0.900280
1798.00,0.783180
1818.00,0.456060
1783.00,0.899780
1748.00,0.912740
1753.00,0.914400
