# Wavenumber	Transmittence
1068.00	0.630240
1023.00	0.567580
1038.00	0.575360
1098.00	0.662220
998.00	0.068820
1083.00	0.672640
1063.00	0.618180
1013.00	0.442080
1003.00	0.175940
1088.00	0.716240
1018.00	0.512160
1078.00	0.648980
1093.00	0.716120
1058.00	0.587800
1028.00	0.577260
1113.00	0.605700
1048.00	0.531900
1103.00	0.594500
1053.00	0.556440
1043.00	0.556240
1108.00	0.561260
1033.00	0.577640
1118.00	0.662200
1073.00	0.636020
1008.00	0.306100
