# Wavenumber,Transmittence
1018.00,0.512160
958.00,0.401440
928.00,0.292200
978.00,0.050020
933.00,0.378700
973.00,0.133100
923.00,0.205800
1013.00,0.442080
943.00,0.503620
963.00,0.312000
988.00,0.005060
948.00,0.519780
998.00,0.068820
953.00,0.488880
993.00,0.009320
1003.00,0.175940
968.00,0.222560
983.00,0.013940
938.00,0.454160
1008.00,0.306100
