# Wavenumber Transmittence
863.00 0.605760
913.00 0.008100
928.00 0.292200
948.00 0.519780
923.00 0.205800
883.00 0.189000
963.00 0.312000
858.00 0.629780
938.00 0.454160
958.00 0.401440
893.00 0.028740
898.00 0.006620
918.00 0.099720
868.00 0.530020
908.00 0.000000
888.00 0.096820
943.00 0.503620
933.00 0.378700
903.00 0.000000
878.00 0.233460
953.00 0.488880
968.00 0.222560
873.00 0.375400
853.00 0.638460
