# Wavenumber,Transmittence
3503.00,0.932820
3488.00,0.931960
3443.00,0.929040
3528.00,0.934700
3498.00,0.932520
3483.00,0.931900
3513.00,0.933420
3508.00,0.933120
3493.00,0.932220
3438.00,0.927960
3433.00,0.926900
3453.00,0.931280
3458.00,0.932060
3523.00,0.934200
3448.00,0.930160
3468.00,0.932000
3478.00,0.931900
3518.00,0.933800
3473.00,0.931980
3463.00,0.932000
