# Wavenumber Transmittence
3178.00 0.811160
3198.00 0.851660
3118.00 0.746340
3138.00 0.776260
3188.00 0.829000
3128.00 0.763820
3173.00 0.806300
3158.00 0.794300
3208.00 0.869780
3113.00 0.733960
3203.00 0.861000
3148.00 0.785800
3163.00 0.798300
3153.00 0.790220
3213.00 0.877380
3133.00 0.770080
3123.00 0.755640
3143.00 0.781380
3183.00 0.817680
3168.00 0.802300
3193.00 0.842300
