# Wavenumber Transmittence
1588.00 0.828740
1618.00 0.589860
1693.00 0.839140
1613.00 0.634280
1643.00 0.252280
1653.00 0.709540
1678.00 0.837220
1598.00 0.793320
1663.00 0.778260
1638.00 0.038180
1608.00 0.660640
1703.00 0.873360
1688.00 0.847560
1658.00 0.750560
1603.00 0.714200
1668.00 0.808000
1648.00 0.442200
1673.00 0.824660
1683.00 0.845840
1698.00 0.847680
1623.00 0.372080
1628.00 0.141000
1593.00 0.815120
1633.00 0.014460
