# Wavenumber	Transmittence
1203.00	0.731200
1133.00	0.672480
1173.00	0.793660
1158.00	0.764820
1143.00	0.690740
1128.00	0.698740
1193.00	0.729540
1148.00	0.728900
1183.00	0.748240
1138.00	0.672820
1208.00	0.733820
1178.00	0.773920
1168.00	0.795920
1163.00	0.782640
1198.00	0.737460
1123.00	0.705980
1188.00	0.729740
1153.00	0.750840
1118.00	0.662200
1213.00	0.736500
