# Wavenumber,Transmittence
2258.00,0.895420
2298.00,0.897380
2278.00,0.893420
2253.00,0.899620
2318.00,0.895560
2313.00,0.898400
2243.00,0.906420
2293.00,0.896120
2263.00,0.893440
2283.00,0.894180
2328.00,0.889860
2233.00,0.912420
2273.00,0.893020
2303.00,0.898800
2248.00,0.903160
2238.00,0.909660
2228.00,0.913360
2323.00,0.892460
2268.00,0.892720
2288.00,0.895020
2308.00,0.899820
