# Wavenumber Transmittence
3428.00 0.925820
3498.00 0.932520
3418.00 0.925060
3478.00 0.931900
3423.00 0.924900
3503.00 0.932820
3453.00 0.931280
3438.00 0.927960
3488.00 0.931960
3433.00 0.926900
3443.00 0.929040
3473.00 0.931980
3508.00 0.933120
3493.00 0.932220
3468.00 0.932000
3463.00 0.932000
3413.00 0.925500
3483.00 0.931900
3458.00 0.932060
3448.00 0.930160
