# Wavenumber	Transmittence
3373.00	0.923500
3353.00	0.921340
3388.00	0.925860
3458.00	0.932060
3473.00	0.931980
3358.00	0.921920
3428.00	0.925820
3378.00	0.924160
3403.00	0.926380
3438.00	0.927960
3463.00	0.932000
3408.00	0.926000
3443.00	0.929040
3363.00	0.922500
3398.00	0.926720
3368.00	0.923000
3468.00	0.932000
3418.00	0.925060
3413.00	0.925500
3478.00	0.931900
3383.00	0.925020
3433.00	0.926900
3423.00	0.924900
3448.00	0.930160
3393.00	0.926660
3453.00	0.931280
