# Wavenumber Transmittence
738.00 0.642620
783.00 0.774300
778.00 0.796080
748.00 0.661460
718.00 0.282020
698.00 0.837460
768.00 0.742980
723.00 0.167980
728.00 0.314140
733.00 0.492340
763.00 0.679900
758.00 0.619080
743.00 0.669540
823.00 0.764060
708.00 0.682300
818.00 0.735980
773.00 0.789160
788.00 0.766380
798.00 0.795320
813.00 0.723640
713.00 0.475280
793.00 0.785800
703.00 0.795620
808.00 0.737280
753.00 0.607920
803.00 0.781540
693.00 0.856040
