# Wavenumber Transmittence
2648.00 0.656940
2653.00 0.643880
2678.00 0.681720
2613.00 0.741900
2673.00 0.660540
2598.00 0.764120
2698.00 0.674740
2618.00 0.734860
2663.00 0.641640
2638.00 0.692800
2668.00 0.644860
2633.00 0.710800
2608.00 0.749120
2688.00 0.694340
2623.00 0.728180
2593.00 0.772120
2683.00 0.692060
2693.00 0.690180
2588.00 0.780260
2658.00 0.640700
2603.00 0.756500
2703.00 0.659740
2643.00 0.674800
2583.00 0.785300
2628.00 0.723780
