# Wavenumber Transmittence
1063.00 0.618180
1023.00 0.567580
1008.00 0.306100
1068.00 0.630240
1118.00 0.662200
1073.00 0.636020
993.00 0.009320
1113.00 0.605700
998.00 0.068820
1058.00 0.587800
1053.00 0.556440
1018.00 0.512160
1083.00 0.672640
1003.00 0.175940
1013.00 0.442080
1093.00 0.716120
1033.00 0.577640
1043.00 0.556240
988.00 0.005060
1038.00 0.575360
1088.00 0.716240
1078.00 0.648980
1098.00 0.662220
1103.00 0.594500
1028.00 0.577260
1048.00 0.531900
1108.00 0.561260
