# Wavenumber	Transmittence
1818.00	0.456060
1853.00	0.904820
1828.00	0.731060
1798.00	0.783180
1888.00	0.905620
1893.00	0.909760
1833.00	0.799260
1868.00	0.914840
1873.00	0.914480
1843.00	0.875260
1838.00	0.845420
1878.00	0.908780
1863.00	0.915320
1883.00	0.905060
1813.00	0.409300
1823.00	0.628660
1808.00	0.460740
1858.00	0.915280
1848.00	0.892980
1803.00	0.619460
