# Wavenumber Transmittence
888.00 0.096820
943.00 0.503620
948.00 0.519780
958.00 0.401440
853.00 0.638460
908.00 0.000000
913.00 0.008100
883.00 0.189000
848.00 0.647340
863.00 0.605760
953.00 0.488880
868.00 0.530020
878.00 0.233460
918.00 0.099720
898.00 0.006620
928.00 0.292200
903.00 0.000000
933.00 0.378700
873.00 0.375400
858.00 0.629780
938.00 0.454160
893.00 0.028740
923.00 0.205800
