# Wavenumber Transmittence
683.00 0.867400
673.00 0.833600
688.00 0.866820
698.00 0.837460
728.00 0.314140
743.00 0.669540
678.00 0.856640
668.00 0.794980
718.00 0.282020
723.00 0.167980
663.00 0.734280
708.00 0.682300
693.00 0.856040
738.00 0.642620
748.00 0.661460
733.00 0.492340
703.00 0.795620
713.00 0.475280
758.00 0.619080
753.00 0.607920
