# Wavenumber Transmittence
1788.00 0.887320
1738.00 0.909520
1723.00 0.895780
1698.00 0.847680
1753.00 0.914400
1783.00 0.899780
1748.00 0.912740
1773.00 0.914020
1718.00 0.891240
1693.00 0.839140
1688.00 0.847560
1743.00 0.912520
1758.00 0.917680
1703.00 0.873360
1768.00 0.917640
1728.00 0.900280
1713.00 0.885600
1708.00 0.882440
1763.00 0.918620
1778.00 0.906720
1733.00 0.903820
