# Wavenumber	Transmittence
988.00	0.005060
913.00	0.008100
1023.00	0.567580
933.00	0.378700
953.00	0.488880
1008.00	0.306100
973.00	0.133100
1018.00	0.512160
923.00	0.205800
943.00	0.503620
948.00	0.519780
928.00	0.292200
968.00	0.222560
1003.00	0.175940
963.00	0.312000
1043.00	0.556240
908.00	0.000000
958.00	0.401440
993.00	0.009320
978.00	0.050020
938.00	0.454160
1013.00	0.442080
1028.00	0.577260
1033.00	0.577640
918.00	0.099720
1038.00	0.575360
998.00	0.068820
983.00	0.013940
