# Wavenumber	Transmittence
2048.00	0.912360
2013.00	0.914840
2068.00	0.922760
2023.00	0.906180
2083.00	0.922820
2053.00	0.915580
2078.00	0.922700
2058.00	0.919000
2018.00	0.911180
2093.00	0.927340
2113.00	0.927600
2043.00	0.909340
2028.00	0.905180
2008.00	0.917460
2073.00	0.922780
2038.00	0.906980
2088.00	0.925120
2098.00	0.927620
2103.00	0.927700
2033.00	0.905620
2063.00	0.921600
2108.00	0.927700
