# Wavenumber	Transmittence
653.00	0.606540
698.00	0.837460
668.00	0.794980
673.00	0.833600
613.00	0.568440
648.00	0.473640
588.00	0.899200
703.00	0.795620
608.00	0.719520
593.00	0.880000
693.00	0.856040
638.00	0.240280
618.00	0.423320
678.00	0.856640
633.00	0.192220
708.00	0.682300
663.00	0.734280
643.00	0.355060
683.00	0.867400
688.00	0.866820
598.00	0.850040
628.00	0.200780
658.00	0.696980
603.00	0.802140
623.00	0.278580
