# Wavenumber Transmittence
2243.00 0.906420
2228.00 0.913360
2173.00 0.910520
2248.00 0.903160
2253.00 0.899620
2158.00 0.913580
2188.00 0.911020
2213.00 0.911820
2198.00 0.912300
2208.00 0.911700
2193.00 0.911920
2178.00 0.909900
2233.00 0.912420
2163.00 0.912500
2223.00 0.913020
2168.00 0.911500
2153.00 0.915100
2203.00 0.911800
2238.00 0.909660
2183.00 0.909940
2218.00 0.912360
