# Wavenumber Transmittence
3578.00 0.932220
3623.00 0.907840
3533.00 0.935100
3583.00 0.929280
3573.00 0.935020
3628.00 0.910420
3613.00 0.907420
3588.00 0.925720
3608.00 0.910100
3593.00 0.921600
3548.00 0.937060
3568.00 0.936400
3633.00 0.911860
3638.00 0.910500
3538.00 0.935560
3603.00 0.913620
3563.00 0.937400
3558.00 0.938460
3618.00 0.907220
3643.00 0.909000
3598.00 0.917520
3543.00 0.936060
3553.00 0.938140
