# Wavenumber	Transmittence
463.00	0.942020
508.00	0.967200
543.00	0.757220
438.00	0.838800
458.00	0.922520
498.00	0.963340
453.00	0.898200
473.00	0.949980
538.00	0.876660
443.00	0.848700
433.00	0.846880
513.00	0.964220
518.00	0.960580
528.00	0.950260
488.00	0.943380
533.00	0.923380
448.00	0.874140
493.00	0.950040
503.00	0.969080
468.00	0.949560
478.00	0.945800
483.00	0.942020
523.00	0.955580
548.00	0.628080
