# Wavenumber Transmittence
2438.00 0.906560
2393.00 0.910800
2408.00 0.907160
2373.00 0.895280
2423.00 0.903180
2418.00 0.903880
2463.00 0.913180
2458.00 0.913000
2403.00 0.908920
2448.00 0.910380
2453.00 0.912080
2383.00 0.904940
2378.00 0.899380
2473.00 0.910300
2428.00 0.903460
2413.00 0.905240
2468.00 0.912360
2398.00 0.910280
2388.00 0.909000
2443.00 0.908580
2433.00 0.904540
