# Wavenumber Transmittence
2278.00 0.893420
2313.00 0.898400
2308.00 0.899820
2258.00 0.895420
2268.00 0.892720
2263.00 0.893440
2288.00 0.895020
2253.00 0.899620
2273.00 0.893020
2318.00 0.895560
2338.00 0.887380
2293.00 0.896120
2283.00 0.894180
2323.00 0.892460
2303.00 0.898800
2343.00 0.886860
2328.00 0.889860
2298.00 0.897380
2348.00 0.886980
2353.00 0.887220
2358.00 0.887740
2333.00 0.888080
