# Wavenumber,Transmittence
3723.00,0.910440
3733.00,0.897780
3753.00,0.904180
3728.00,0.904760
3708.00,0.912760
3748.00,0.903880
3738.00,0.897360
3688.00,0.908480
3683.00,0.910140
3743.00,0.902380
3703.00,0.910520
3668.00,0.912680
3758.00,0.904380
3718.00,0.913340
3713.00,0.913640
3673.00,0.912480
3693.00,0.907880
3763.00,0.904540
3698.00,0.908800
3678.00,0.911820
