# Wavenumber Transmittence
1263.00 0.585940
1268.00 0.603100
1233.00 0.777460
1178.00 0.773920
1283.00 0.564080
1203.00 0.731200
1243.00 0.732320
1248.00 0.699680
1223.00 0.729260
1228.00 0.770480
1218.00 0.708200
1198.00 0.737460
1278.00 0.623640
1258.00 0.627020
1188.00 0.729740
1213.00 0.736500
1273.00 0.638200
1253.00 0.672620
1208.00 0.733820
1193.00 0.729540
1288.00 0.507500
1183.00 0.748240
1238.00 0.764300
