# Wavenumber Transmittence
3613.00 0.907420
3583.00 0.929280
3558.00 0.938460
3543.00 0.936060
3513.00 0.933420
3588.00 0.925720
3518.00 0.933800
3598.00 0.917520
3568.00 0.936400
3573.00 0.935020
3603.00 0.913620
3533.00 0.935100
3528.00 0.934700
3523.00 0.934200
3608.00 0.910100
3548.00 0.937060
3538.00 0.935560
3593.00 0.921600
3553.00 0.938140
3578.00 0.932220
3563.00 0.937400
