# Wavenumber Transmittence
618.00 0.423320
678.00 0.856640
638.00 0.240280
698.00 0.837460
663.00 0.734280
643.00 0.355060
648.00 0.473640
703.00 0.795620
683.00 0.867400
673.00 0.833600
633.00 0.192220
608.00 0.719520
628.00 0.200780
693.00 0.856040
623.00 0.278580
598.00 0.850040
653.00 0.606540
658.00 0.696980
668.00 0.794980
688.00 0.866820
603.00 0.802140
613.00 0.568440
