# Wavenumber	Transmittence
1818.00	0.456060
1813.00	0.409300
1918.00	0.925340
1833.00	0.799260
1863.00	0.915320
1908.00	0.925380
1883.00	0.905060
1913.00	0.924740
1878.00	0.908780
1873.00	0.914480
1933.00	0.936200
1868.00	0.914840
1848.00	0.892980
1938.00	0.935920
1888.00	0.905620
1858.00	0.915280
1838.00	0.845420
1893.00	0.909760
1828.00	0.731060
1898.00	0.916580
1843.00	0.875260
1853.00	0.904820
1903.00	0.923560
1823.00	0.628660
1923.00	0.927740
1928.00	0.931500
