# Wavenumber	Transmittence
1908.00	0.925380
1923.00	0.927740
1863.00	0.915320
1838.00	0.845420
1843.00	0.875260
1888.00	0.905620
1913.00	0.924740
1878.00	0.908780
1848.00	0.892980
1903.00	0.923560
1938.00	0.935920
1933.00	0.936200
1898.00	0.916580
1943.00	0.933580
1928.00	0.931500
1948.00	0.928500
1883.00	0.905060
1853.00	0.904820
1868.00	0.914840
1833.00	0.799260
1858.00	0.915280
1918.00	0.925340
1873.00	0.914480
1953.00	0.919660
1893.00	0.909760
