# Wavenumber	Transmittence
1918.00	0.925340
1843.00	0.875260
1923.00	0.927740
1853.00	0.904820
1898.00	0.916580
1953.00	0.919660
1848.00	0.892980
1888.00	0.905620
1908.00	0.925380
1873.00	0.914480
1928.00	0.931500
1868.00	0.914840
1938.00	0.935920
1943.00	0.933580
1933.00	0.936200
1883.00	0.905060
1863.00	0.915320
1903.00	0.923560
1893.00	0.909760
1858.00	0.915280
1838.00	0.845420
1948.00	0.928500
1913.00	0.924740
1878.00	0.908780
