# Wavenumber	Transmittence
1924.06	0.970000
1886.56	0.988400
1952.19	0.984000
1910.00	0.977200
1891.25	0.986400
1877.19	0.991200
1961.56	0.988800
1947.50	0.980400
1942.81	0.976800
1919.38	0.972400
1895.94	0.984600
1938.13	0.973800
1900.63	0.982200
1881.88	0.989400
1928.75	0.969800
1956.88	0.987200
1905.31	0.979600
1966.25	0.991200
1933.44	0.970800
1914.69	0.974400
