# Wavenumber Transmittence
3058.44 0.982220
2983.44 0.246100
3030.31 0.787900
3049.06 0.960120
2988.13 0.241720
3044.38 0.937260
2964.69 0.272920
2969.38 0.250020
3063.13 0.985880
2997.50 0.315940
3039.69 0.901400
3006.88 0.410360
3020.94 0.633360
3053.75 0.973600
3035.00 0.841600
2992.81 0.270540
3016.25 0.571840
3067.81 0.988880
2978.75 0.246240
3072.50 0.991060
3011.56 0.484880
3025.63 0.724220
2974.06 0.244240
3002.19 0.353180
