# Wavenumber	Transmittence
2838.13	0.790080
2781.88	0.908820
2805.31	0.878500
2763.13	0.922500
2810.00	0.871900
2824.06	0.845640
2819.38	0.854560
2795.94	0.890460
2786.56	0.902220
2749.06	0.932800
2777.19	0.914220
2772.50	0.916600
2791.25	0.895560
2753.75	0.929560
2833.44	0.813300
2814.69	0.864300
2842.81	0.759640
2744.38	0.934500
2758.44	0.925860
2767.81	0.919500
2800.63	0.885200
2828.75	0.831620
