# Wavenumber Transmittence
1038.13 0.258000
967.81 0.980800
1005.31 0.705800
972.50 0.972000
949.06 0.994000
991.25 0.883600
1019.38 0.527000
963.13 0.986800
1028.75 0.398780
1000.63 0.772680
981.88 0.941400
995.94 0.841800
944.38 0.992800
1010.00 0.633680
958.44 0.989600
977.19 0.960000
986.56 0.917200
953.75 0.992200
1014.69 0.555600
1024.06 0.448440
1033.44 0.325820
