# Wavenumber Transmittence
705.31 1.013000
672.50 1.002000
639.69 1.005000
747.50 1.007400
742.81 1.007000
667.81 1.011400
653.75 1.007400
752.19 1.006200
738.13 1.007400
663.13 1.007800
719.38 1.015000
756.88 1.006200
686.56 1.008000
677.19 0.999400
649.06 1.007800
710.00 1.013200
681.88 1.007200
644.38 1.007000
733.44 1.009000
700.63 1.012200
691.25 1.008000
658.44 1.006600
714.69 1.013400
724.06 1.020200
728.75 1.012800
695.94 1.009600
