# Wavenumber Transmittence
3574.06 0.990840
3494.38 1.001780
3531.88 1.001180
3508.44 1.002360
3517.81 1.004000
3522.50 1.003240
3545.94 1.000000
3480.31 1.001000
3475.63 1.000380
3489.69 1.001000
3503.75 1.002000
3527.19 1.002000
3564.69 0.991080
3578.75 0.989500
3513.13 1.004000
3555.31 0.995960
3569.38 0.990360
3550.63 0.998460
3541.25 1.000000
3560.00 0.993520
3499.06 1.002000
3485.00 1.001000
3536.56 1.000060
