# Wavenumber	Transmittence
714.69	1.013400
667.81	1.011400
686.56	1.008000
681.88	1.007200
639.69	1.005000
724.06	1.020200
658.44	1.006600
630.31	1.002400
606.88	0.995400
677.19	0.999400
653.75	1.007400
700.63	1.012200
691.25	1.008000
719.38	1.015000
611.56	0.997200
625.63	1.001200
620.94	1.000400
649.06	1.007800
644.38	1.007000
705.31	1.013000
663.13	1.007800
728.75	1.012800
672.50	1.002000
635.00	1.004200
616.25	0.998800
695.94	1.009600
710.00	1.013200
