# Wavenumber,Transmittence
3297.50,1.007000
3292.81,1.006980
3288.13,1.005180
3227.19,0.992640
3241.25,0.997100
3269.38,1.004400
3278.75,1.005000
3222.50,0.991100
3274.06,1.004700
3302.19,1.007000
3260.00,1.001900
3311.56,1.007000
3283.44,1.005000
3231.88,0.994100
3245.94,0.998600
3250.63,1.000100
3306.88,1.007000
3217.81,0.991000
3236.56,0.995600
3255.31,1.001000
3264.69,1.002600
