# Wavenumber Transmittence
813.13 0.985000
728.75 1.012800
724.06 1.020200
766.25 1.004000
780.31 0.993800
681.88 1.007200
695.94 1.009600
686.56 1.008000
700.63 1.012200
705.31 1.013000
799.06 0.985000
738.13 1.007400
770.94 1.000800
752.19 1.006200
714.69 1.013400
761.56 1.005000
775.63 0.998000
785.00 0.991400
742.81 1.007000
756.88 1.006200
789.69 0.988600
733.44 1.009000
747.50 1.007400
691.25 1.008000
719.38 1.015000
803.75 0.984000
808.44 0.984800
794.38 0.986800
710.00 1.013200
