# Wavenumber,Transmittence
719.38,1.015000
742.81,1.007000
663.13,1.007800
752.19,1.006200
681.88,1.007200
756.88,1.006200
705.31,1.013000
695.94,1.009600
710.00,1.013200
686.56,1.008000
738.13,1.007400
724.06,1.020200
761.56,1.005000
747.50,1.007400
700.63,1.012200
691.25,1.008000
677.19,0.999400
672.50,1.002000
733.44,1.009000
714.69,1.013400
728.75,1.012800
766.25,1.004000
667.81,1.011400
770.94,1.000800
