# Wavenumber,Transmittence
3217.81,0.991000
3203.75,0.992960
3142.81,1.000000
3156.88,1.000000
3161.56,1.000340
3208.44,0.992000
3180.31,0.999320
3236.56,0.995600
3213.13,0.991500
3152.19,1.000000
3231.88,0.994100
3194.38,0.995960
3147.50,1.000000
3241.25,0.997100
3222.50,0.991100
3227.19,0.992640
3199.06,0.994660
3185.00,0.997860
3170.94,1.000260
3175.63,1.000000
3245.94,0.998600
3189.69,0.997000
3166.25,1.001000
