# Wavenumber,Transmittence
1947.50,0.980400
2036.56,1.001000
2041.25,1.001000
1999.06,1.001000
2031.88,1.001000
2008.44,1.001000
2060.00,1.000740
2022.50,1.001000
2003.75,1.001000
1970.94,0.992800
2045.94,1.001400
2050.63,1.001000
1961.56,0.988800
1985.00,0.998400
1966.25,0.991200
1980.31,0.996600
1952.19,0.984000
1989.69,1.000200
1956.88,0.987200
2055.31,1.001000
2013.13,1.001000
1975.63,0.994600
2027.19,1.001000
2064.69,1.000000
2017.81,1.001000
1994.38,1.001000
