# Wavenumber Transmittence
545.94 0.970000
611.56 0.997200
583.44 0.988800
635.00 1.004200
560.00 0.978000
588.13 0.991400
620.94 1.000400
574.06 0.985600
564.69 0.981200
602.19 0.994800
606.88 0.995400
536.56 0.970000
569.38 0.983200
616.25 0.998800
644.38 1.007000
555.31 0.974400
550.63 0.972000
639.69 1.005000
597.50 0.994000
625.63 1.001200
541.25 0.970000
630.31 1.002400
578.75 0.988200
592.81 0.992400
649.06 1.007800
