# Wavenumber	Transmittence
1066.25	0.164540
1061.56	0.179820
1047.50	0.188600
1122.50	0.856800
1089.69	0.411380
1127.19	0.885400
1038.13	0.258000
1052.19	0.179400
1108.44	0.648400
1085.00	0.309360
1042.81	0.209600
1117.81	0.795200
1113.13	0.734100
1056.88	0.178140
1080.31	0.247600
1094.38	0.507800
1131.88	0.907800
1033.44	0.325820
1070.94	0.197000
1099.06	0.542800
1028.75	0.398780
1103.75	0.583980
1075.63	0.193800
