# Wavenumber Transmittence
1267.81 0.765600
1281.88 0.869800
1291.25 0.892200
1310.00 0.899000
1286.56 0.880600
1352.19 0.808600
1333.44 0.883800
1295.94 0.896800
1356.88 0.758040
1300.63 0.899000
1305.31 0.899000
1272.50 0.814200
1277.19 0.846200
1314.69 0.897200
1361.56 0.701200
1347.50 0.844600
1338.13 0.874800
1324.06 0.893200
1342.81 0.861000
1319.38 0.895600
1328.75 0.890200
