# Wavenumber,Transmittence
2392.81,0.997000
2425.63,0.992200
2420.94,0.992000
2472.50,0.997860
2435.00,0.994000
2444.38,0.995000
2458.44,0.996980
2378.75,0.999760
2449.06,0.995000
2397.50,0.997000
2453.75,0.995180
2463.13,0.997000
2369.38,1.001000
2439.69,0.994300
2416.25,0.992000
2402.19,0.995600
2411.56,0.993400
2430.31,0.994000
2388.13,0.997000
2374.06,1.000300
2383.44,0.997700
2406.88,0.994900
2467.81,0.997000
2364.69,1.001000
