# Wavenumber	Transmittence
770.94	1.000800
691.25	1.008000
710.00	1.013200
728.75	1.012800
695.94	1.009600
672.50	1.002000
719.38	1.015000
714.69	1.013400
766.25	1.004000
705.31	1.013000
747.50	1.007400
761.56	1.005000
775.63	0.998000
681.88	1.007200
738.13	1.007400
663.13	1.007800
752.19	1.006200
733.44	1.009000
700.63	1.012200
686.56	1.008000
677.19	0.999400
724.06	1.020200
667.81	1.011400
756.88	1.006200
742.81	1.007000
