# Wavenumber Transmittence
967.81 0.980800
1028.75 0.398780
1005.31 0.705800
1024.06 0.448440
995.94 0.841800
972.50 0.972000
1014.69 0.555600
944.38 0.992800
963.13 0.986800
949.06 0.994000
1000.63 0.772680
991.25 0.883600
953.75 0.992200
1019.38 0.527000
986.56 0.917200
981.88 0.941400
1010.00 0.633680
1033.44 0.325820
958.44 0.989600
977.19 0.960000
