# Wavenumber,Transmittence
2181.88,0.994000
2205.31,0.997900
2233.44,0.999920
2224.06,1.000000
2167.81,0.994000
2210.00,0.999900
2149.06,0.991420
2195.94,0.994820
2219.38,1.000000
2186.56,0.994000
2172.50,0.994000
2228.75,1.000000
2242.81,0.997220
2153.75,0.992440
2200.63,0.996200
2158.44,0.994000
2191.25,0.994000
2238.13,0.998120
2177.19,0.994000
2163.13,0.994000
2214.69,1.000000
