# Wavenumber Transmittence
630.31 1.002400
649.06 1.007800
625.63 1.001200
611.56 0.997200
710.00 1.013200
639.69 1.005000
714.69 1.013400
616.25 0.998800
635.00 1.004200
705.31 1.013000
653.75 1.007400
733.44 1.009000
644.38 1.007000
724.06 1.020200
658.44 1.006600
686.56 1.008000
700.63 1.012200
606.88 0.995400
667.81 1.011400
728.75 1.012800
672.50 1.002000
681.88 1.007200
691.25 1.008000
663.13 1.007800
620.94 1.000400
695.94 1.009600
719.38 1.015000
677.19 0.999400
