# Wavenumber	Transmittence
1286.56	0.880600
1295.94	0.896800
1263.13	0.715760
1253.75	0.642400
1324.06	0.893200
1277.19	0.846200
1310.00	0.899000
1319.38	0.895600
1291.25	0.892200
1249.06	0.623400
1267.81	0.765600
1338.13	0.874800
1314.69	0.897200
1258.44	0.663800
1333.44	0.883800
1305.31	0.899000
1281.88	0.869800
1272.50	0.814200
1300.63	0.899000
1328.75	0.890200
