# Wavenumber Transmittence
681.88 1.007200
649.06 1.007800
602.19 0.994800
672.50 1.002000
611.56 0.997200
686.56 1.008000
620.94 1.000400
695.94 1.009600
644.38 1.007000
663.13 1.007800
658.44 1.006600
653.75 1.007400
616.25 0.998800
630.31 1.002400
625.63 1.001200
667.81 1.011400
597.50 0.994000
677.19 0.999400
606.88 0.995400
635.00 1.004200
639.69 1.005000
691.25 1.008000
