# Wavenumber Transmittence
1211.56 0.808200
1155.31 0.957800
1253.75 0.642400
1202.19 0.875200
1220.94 0.694800
1263.13 0.715760
1178.75 0.930800
1183.44 0.923600
1272.50 0.814200
1197.50 0.890000
1169.38 0.952800
1206.88 0.848400
1174.06 0.945200
1225.63 0.657200
1249.06 0.623400
1239.69 0.671620
1160.00 0.959000
1258.44 0.663800
1267.81 0.765600
1188.13 0.917000
1164.69 0.956600
1192.81 0.903200
1244.38 0.655800
1216.25 0.750440
1235.00 0.678580
1230.31 0.652200
