# Wavenumber Transmittence
705.31 1.013000
742.81 1.007000
667.81 1.011400
663.13 1.007800
756.88 1.006200
733.44 1.009000
658.44 1.006600
738.13 1.007400
761.56 1.005000
752.19 1.006200
719.38 1.015000
672.50 1.002000
695.94 1.009600
747.50 1.007400
710.00 1.013200
724.06 1.020200
700.63 1.012200
686.56 1.008000
714.69 1.013400
728.75 1.012800
681.88 1.007200
691.25 1.008000
677.19 0.999400
