# Wavenumber	Transmittence
3447.50	1.000940
3456.88	0.999900
3391.25	1.001900
3358.44	1.005000
3461.56	0.998100
3386.56	1.002540
3414.69	1.002000
3470.94	1.000000
3452.19	1.000040
3377.19	1.004780
3475.63	1.000380
3410.00	1.001420
3395.94	1.001000
3367.81	1.005000
3419.38	1.003640
3438.13	1.001580
3428.75	1.004000
3433.44	1.002760
3405.31	1.001000
3372.50	1.003800
3442.81	1.001000
3400.63	1.001000
3363.13	1.005000
3381.88	1.003860
3424.06	1.004000
3466.25	0.998800
