# Wavenumber Transmittence
780.31 0.993800
831.88 0.984400
845.94 0.969200
827.19 0.985800
789.69 0.988600
799.06 0.985000
808.44 0.984800
850.63 0.945800
822.50 0.986000
770.94 1.000800
855.31 0.912600
775.63 0.998000
836.56 0.981400
794.38 0.986800
766.25 1.004000
756.88 1.006200
785.00 0.991400
761.56 1.005000
860.00 0.862200
841.25 0.978400
803.75 0.984000
752.19 1.006200
817.81 0.985400
813.13 0.985000
