# Wavenumber	Transmittence
2800.63	0.885200
2758.44	0.925860
2739.69	0.937480
2781.88	0.908820
2720.94	0.957820
2805.31	0.878500
2772.50	0.916600
2716.25	0.960720
2777.19	0.914220
2706.88	0.969560
2725.63	0.954120
2763.13	0.922500
2810.00	0.871900
2814.69	0.864300
2786.56	0.902220
2791.25	0.895560
2730.31	0.950520
2795.94	0.890460
2744.38	0.934500
2735.00	0.943300
2767.81	0.919500
2749.06	0.932800
2702.19	0.972100
2711.56	0.965360
2753.75	0.929560
2697.50	0.974280
