# Wavenumber	Transmittence
906.88	0.846960
869.38	0.796200
892.81	0.761400
817.81	0.985400
855.31	0.912600
878.75	0.773480
897.50	0.777400
874.06	0.803000
888.13	0.772040
902.19	0.798200
883.44	0.777200
827.19	0.985800
813.13	0.985000
864.69	0.821200
836.56	0.981400
911.56	0.903400
860.00	0.862200
841.25	0.978400
822.50	0.986000
850.63	0.945800
831.88	0.984400
845.94	0.969200
