# Wavenumber Transmittence
1872.50 0.992000
1905.31 0.979600
1928.75 0.969800
1877.19 0.991200
1886.56 0.988400
1900.63 0.982200
1910.00 0.977200
1914.69 0.974400
1858.44 0.996600
1924.06 0.970000
1933.44 0.970800
1867.81 0.992800
1849.06 0.997000
1881.88 0.989400
1891.25 0.986400
1938.13 0.973800
1919.38 0.972400
1863.13 0.994200
1853.75 0.997200
1895.94 0.984600
