# Wavenumber	Transmittence
592.81	0.992400
663.13	1.007800
625.63	1.001200
611.56	0.997200
620.94	1.000400
649.06	1.007800
630.31	1.002400
653.75	1.007400
602.19	0.994800
606.88	0.995400
560.00	0.978000
578.75	0.988200
574.06	0.985600
644.38	1.007000
635.00	1.004200
597.50	0.994000
564.69	0.981200
658.44	1.006600
555.31	0.974400
639.69	1.005000
616.25	0.998800
583.44	0.988800
588.13	0.991400
569.38	0.983200
