# Wavenumber	Transmittence
3536.56	1.000060
3494.38	1.001780
3466.25	0.998800
3461.56	0.998100
3503.75	1.002000
3541.25	1.000000
3452.19	1.000040
3531.88	1.001180
3555.31	0.995960
3522.50	1.003240
3456.88	0.999900
3480.31	1.001000
3475.63	1.000380
3513.13	1.004000
3550.63	0.998460
3527.19	1.002000
3517.81	1.004000
3489.69	1.001000
3485.00	1.001000
3470.94	1.000000
3508.44	1.002360
3499.06	1.002000
3545.94	1.000000
