# Wavenumber Transmittence
644.38 1.007000
569.38 0.983200
606.88 0.995400
625.63 1.001200
672.50 1.002000
667.81 1.011400
649.06 1.007800
583.44 0.988800
578.75 0.988200
639.69 1.005000
597.50 0.994000
658.44 1.006600
616.25 0.998800
588.13 0.991400
635.00 1.004200
620.94 1.000400
611.56 0.997200
602.19 0.994800
677.19 0.999400
592.81 0.992400
574.06 0.985600
653.75 1.007400
630.31 1.002400
663.13 1.007800
