# Wavenumber,Transmittence
2617.81,0.991040
2594.38,0.998000
2566.25,1.000580
2636.56,0.986800
2613.13,0.991940
2561.56,1.001000
2650.63,0.984220
2641.25,0.985960
2608.44,0.994080
2589.69,0.998080
2631.88,0.988000
2622.50,0.990200
2585.00,0.999880
2603.75,0.997080
2575.63,1.000000
2645.94,0.985060
2570.94,1.000000
2580.31,1.000000
2627.19,0.988420
2599.06,0.998000
