# Wavenumber,Transmittence
3508.44,1.002360
3602.19,0.975200
3522.50,1.003240
3611.56,0.956740
3517.81,1.004000
3564.69,0.991080
3555.31,0.995960
3597.50,0.980200
3527.19,1.002000
3616.25,0.941820
3606.88,0.968020
3578.75,0.989500
3550.63,0.998460
3536.56,1.000060
3583.44,0.988080
3620.94,0.919380
3545.94,1.000000
3531.88,1.001180
3513.13,1.004000
3569.38,0.990360
3541.25,1.000000
3560.00,0.993520
3588.13,0.986180
3625.63,0.898060
3503.75,1.002000
3592.81,0.984180
3574.06,0.990840
