# Wavenumber	Transmittence
1169.38	0.952800
1249.06	0.623400
1225.63	0.657200
1183.44	0.923600
1244.38	0.655800
1239.69	0.671620
1197.50	0.890000
1220.94	0.694800
1216.25	0.750440
1136.56	0.923000
1164.69	0.956600
1235.00	0.678580
1160.00	0.959000
1211.56	0.808200
1150.63	0.954200
1202.19	0.875200
1192.81	0.903200
1174.06	0.945200
1206.88	0.848400
1141.25	0.935800
1178.75	0.930800
1145.94	0.947000
1188.13	0.917000
1230.31	0.652200
1155.31	0.957800
