# Wavenumber	Transmittence
892.81	0.761400
920.94	0.963400
925.63	0.976000
949.06	0.994000
888.13	0.772040
953.75	0.992200
916.25	0.938800
939.69	0.990000
906.88	0.846960
902.19	0.798200
883.44	0.777200
878.75	0.773480
935.00	0.986200
930.31	0.983400
963.13	0.986800
874.06	0.803000
911.56	0.903400
897.50	0.777400
944.38	0.992800
958.44	0.989600
