# Wavenumber,Transmittence
1539.69,0.987800
1506.88,0.946000
1553.75,0.990400
1567.81,0.991400
1586.56,0.994800
1535.00,0.985200
1591.25,0.988800
1525.63,0.977800
1516.25,0.964800
1502.19,0.938200
1572.50,0.993200
1511.56,0.957600
1577.19,0.989600
1610.00,0.989400
1581.88,0.992600
1558.44,0.990200
1520.94,0.970800
1600.63,0.990200
1544.38,0.990400
1549.06,0.993200
1595.94,0.990600
1605.31,0.988800
1530.31,0.982800
1563.13,0.993200
