# Wavenumber,Transmittence
2130.31,0.984000
2092.81,0.993840
2149.06,0.991420
2106.88,0.988020
2102.19,0.990040
2088.13,0.994780
2078.75,0.997740
2083.44,0.996840
2069.38,1.000000
2139.69,0.986740
2116.25,0.986060
2074.06,0.998280
2120.94,0.984940
2135.00,0.984220
2144.38,0.989400
2064.69,1.000000
2111.56,0.988000
2097.50,0.991780
2125.63,0.984040
2153.75,0.992440
