# Wavenumber	Transmittence
986.56	0.917200
1028.75	0.398780
1066.25	0.164540
1061.56	0.179820
1019.38	0.527000
1042.81	0.209600
1014.69	0.555600
972.50	0.972000
995.94	0.841800
977.19	0.960000
1033.44	0.325820
1010.00	0.633680
1024.06	0.448440
1000.63	0.772680
1005.31	0.705800
1047.50	0.188600
1052.19	0.179400
991.25	0.883600
981.88	0.941400
1038.13	0.258000
1056.88	0.178140
1070.94	0.197000
