# Wavenumber	Transmittence
2735.00	0.943300
2697.50	0.974280
2669.38	0.981220
2753.75	0.929560
2758.44	0.925860
2720.94	0.957820
2730.31	0.950520
2749.06	0.932800
2683.44	0.978060
2716.25	0.960720
2688.13	0.977280
2674.06	0.979840
2702.19	0.972100
2739.69	0.937480
2711.56	0.965360
2725.63	0.954120
2744.38	0.934500
2678.75	0.978960
2706.88	0.969560
2692.81	0.975820
