# Wavenumber Transmittence
3752.19 1.001000
3742.81 1.000860
3775.63 0.998000
3761.56 1.000540
3770.94 0.999080
3710.00 0.988260
3766.25 1.000000
3686.56 0.824740
3724.06 1.000460
3714.69 0.991960
3728.75 1.000340
3733.44 1.000000
3738.13 1.000000
3705.31 0.976000
3719.38 0.998960
3691.25 0.892940
3756.88 1.001000
3700.63 0.961140
3747.50 1.001000
3780.31 0.998000
3695.94 0.937620
