# Wavenumber	Transmittence
977.19	0.960000
991.25	0.883600
981.88	0.941400
986.56	0.917200
958.44	0.989600
953.75	0.992200
995.94	0.841800
963.13	0.986800
1024.06	0.448440
967.81	0.980800
949.06	0.994000
1033.44	0.325820
1010.00	0.633680
1014.69	0.555600
1038.13	0.258000
1000.63	0.772680
1005.31	0.705800
1028.75	0.398780
1042.81	0.209600
1047.50	0.188600
972.50	0.972000
1019.38	0.527000
