# Wavenumber Transmittence
742.81 1.007000
761.56 1.005000
752.19 1.006200
719.38 1.015000
770.94 1.000800
714.69 1.013400
785.00 0.991400
728.75 1.012800
686.56 1.008000
789.69 0.988600
724.06 1.020200
681.88 1.007200
695.94 1.009600
780.31 0.993800
747.50 1.007400
766.25 1.004000
756.88 1.006200
705.31 1.013000
672.50 1.002000
700.63 1.012200
677.19 0.999400
733.44 1.009000
775.63 0.998000
710.00 1.013200
691.25 1.008000
738.13 1.007400
