# Wavenumber Transmittence
705.31 1.013000
794.38 0.986800
831.88 0.984400
789.69 0.988600
724.06 1.020200
719.38 1.015000
808.44 0.984800
817.81 0.985400
785.00 0.991400
770.94 1.000800
728.75 1.012800
827.19 0.985800
799.06 0.985000
710.00 1.013200
761.56 1.005000
780.31 0.993800
756.88 1.006200
747.50 1.007400
813.13 0.985000
733.44 1.009000
714.69 1.013400
822.50 0.986000
742.81 1.007000
738.13 1.007400
775.63 0.998000
803.75 0.984000
752.19 1.006200
766.25 1.004000
