# Wavenumber Transmittence
1928.75 0.969800
1858.44 0.996600
1872.50 0.992000
1835.00 0.995000
1919.38 0.972400
1839.69 0.995000
1853.75 0.997200
1877.19 0.991200
1867.81 0.992800
1844.38 0.995000
1895.94 0.984600
1924.06 0.970000
1905.31 0.979600
1849.06 0.997000
1891.25 0.986400
1886.56 0.988400
1933.44 0.970800
1881.88 0.989400
1914.69 0.974400
1938.13 0.973800
1863.13 0.994200
1910.00 0.977200
1900.63 0.982200
