# Wavenumber Transmittence
822.50 0.986000
747.50 1.007400
827.19 0.985800
770.94 1.000800
728.75 1.012800
775.63 0.998000
700.63 1.012200
738.13 1.007400
785.00 0.991400
789.69 0.988600
766.25 1.004000
761.56 1.005000
714.69 1.013400
813.13 0.985000
705.31 1.013000
724.06 1.020200
710.00 1.013200
733.44 1.009000
780.31 0.993800
817.81 0.985400
803.75 0.984000
799.06 0.985000
756.88 1.006200
752.19 1.006200
794.38 0.986800
808.44 0.984800
742.81 1.007000
695.94 1.009600
719.38 1.015000
