# Wavenumber Transmittence
874.06 0.803000
878.75 0.773480
902.19 0.798200
845.94 0.969200
892.81 0.761400
841.25 0.978400
860.00 0.862200
864.69 0.821200
836.56 0.981400
869.38 0.796200
920.94 0.963400
906.88 0.846960
916.25 0.938800
925.63 0.976000
911.56 0.903400
850.63 0.945800
883.44 0.777200
855.31 0.912600
897.50 0.777400
888.13 0.772040
