# Wavenumber	Transmittence
808.44	0.984800
813.13	0.985000
874.06	0.803000
869.38	0.796200
831.88	0.984400
817.81	0.985400
789.69	0.988600
803.75	0.984000
827.19	0.985800
841.25	0.978400
878.75	0.773480
799.06	0.985000
883.44	0.777200
850.63	0.945800
822.50	0.986000
836.56	0.981400
864.69	0.821200
855.31	0.912600
794.38	0.986800
860.00	0.862200
845.94	0.969200
