# Wavenumber	Transmittence
1811.56	0.994000
1858.44	0.996600
1928.75	0.969800
1816.25	0.994800
1867.81	0.992800
1910.00	0.977200
1863.13	0.994200
1905.31	0.979600
1933.44	0.970800
1844.38	0.995000
1881.88	0.989400
1886.56	0.988400
1924.06	0.970000
1895.94	0.984600
1825.63	0.996600
1919.38	0.972400
1872.50	0.992000
1877.19	0.991200
1849.06	0.997000
1820.94	0.995800
1839.69	0.995000
1891.25	0.986400
1835.00	0.995000
1830.31	0.995000
1853.75	0.997200
1900.63	0.982200
1914.69	0.974400
