# Wavenumber	Transmittence
3564.69	0.991080
3583.44	0.988080
3560.00	0.993520
3588.13	0.986180
3541.25	1.000000
3569.38	0.990360
3578.75	0.989500
3522.50	1.003240
3574.06	0.990840
3545.94	1.000000
3508.44	1.002360
3503.75	1.002000
3592.81	0.984180
3550.63	0.998460
3555.31	0.995960
3517.81	1.004000
3536.56	1.000060
3513.13	1.004000
3531.88	1.001180
3527.19	1.002000
