# Wavenumber Transmittence
883.44 0.777200
911.56 0.903400
892.81 0.761400
930.31 0.983400
949.06 0.994000
939.69 0.990000
944.38 0.992800
902.19 0.798200
920.94 0.963400
897.50 0.777400
864.69 0.821200
935.00 0.986200
925.63 0.976000
916.25 0.938800
878.75 0.773480
869.38 0.796200
906.88 0.846960
874.06 0.803000
888.13 0.772040
860.00 0.862200
