# Wavenumber Transmittence
635.00 1.004200
620.94 1.000400
658.44 1.006600
639.69 1.005000
681.88 1.007200
644.38 1.007000
667.81 1.011400
597.50 0.994000
630.31 1.002400
616.25 0.998800
649.06 1.007800
592.81 0.992400
672.50 1.002000
653.75 1.007400
606.88 0.995400
583.44 0.988800
602.19 0.994800
625.63 1.001200
677.19 0.999400
686.56 1.008000
663.13 1.007800
588.13 0.991400
611.56 0.997200
