# Wavenumber Transmittence
3395.94 1.001000
3475.63 1.000380
3485.00 1.001000
3470.94 1.000000
3494.38 1.001780
3419.38 1.003640
3489.69 1.001000
3461.56 0.998100
3447.50 1.000940
3456.88 0.999900
3442.81 1.001000
3438.13 1.001580
3410.00 1.001420
3452.19 1.000040
3400.63 1.001000
3414.69 1.002000
3405.31 1.001000
3466.25 0.998800
3428.75 1.004000
3433.44 1.002760
3424.06 1.004000
3480.31 1.001000
3391.25 1.001900
