# Wavenumber Transmittence
1295.94 0.896800
1300.63 0.899000
1258.44 0.663800
1249.06 0.623400
1291.25 0.892200
1314.69 0.897200
1244.38 0.655800
1281.88 0.869800
1319.38 0.895600
1253.75 0.642400
1305.31 0.899000
1272.50 0.814200
1267.81 0.765600
1286.56 0.880600
1235.00 0.678580
1239.69 0.671620
1324.06 0.893200
1263.13 0.715760
1310.00 0.899000
1277.19 0.846200
