# Wavenumber Transmittence
705.31 1.013000
719.38 1.015000
686.56 1.008000
766.25 1.004000
775.63 0.998000
724.06 1.020200
747.50 1.007400
785.00 0.991400
780.31 0.993800
714.69 1.013400
761.56 1.005000
770.94 1.000800
728.75 1.012800
710.00 1.013200
789.69 0.988600
752.19 1.006200
700.63 1.012200
794.38 0.986800
733.44 1.009000
742.81 1.007000
756.88 1.006200
691.25 1.008000
738.13 1.007400
695.94 1.009600
