# Wavenumber Transmittence
1942.81 0.976800
1886.56 0.988400
1938.13 0.973800
1872.50 0.992000
1877.19 0.991200
1863.13 0.994200
1928.75 0.969800
1853.75 0.997200
1900.63 0.982200
1914.69 0.974400
1905.31 0.979600
1919.38 0.972400
1891.25 0.986400
1858.44 0.996600
1895.94 0.984600
1933.44 0.970800
1924.06 0.970000
1867.81 0.992800
1910.00 0.977200
1881.88 0.989400
1947.50 0.980400
