# Wavenumber,Transmittence
2195.94,0.994820
2130.31,0.984000
2088.13,0.994780
2153.75,0.992440
2102.19,0.990040
2200.63,0.996200
2135.00,0.984220
2111.56,0.988000
2097.50,0.991780
2158.44,0.994000
2167.81,0.994000
2139.69,0.986740
2177.19,0.994000
2163.13,0.994000
2116.25,0.986060
2191.25,0.994000
2125.63,0.984040
2181.88,0.994000
2092.81,0.993840
2149.06,0.991420
2120.94,0.984940
2144.38,0.989400
2106.88,0.988020
2172.50,0.994000
2186.56,0.994000
