# Wavenumber Transmittence
995.94 0.841800
986.56 0.917200
977.19 0.960000
1019.38 0.527000
930.31 0.983400
935.00 0.986200
963.13 0.986800
944.38 0.992800
925.63 0.976000
1010.00 0.633680
1000.63 0.772680
939.69 0.990000
958.44 0.989600
991.25 0.883600
972.50 0.972000
1014.69 0.555600
1024.06 0.448440
953.75 0.992200
1005.31 0.705800
949.06 0.994000
920.94 0.963400
967.81 0.980800
981.88 0.941400
