# Wavenumber Transmittence
2767.81 0.919500
2758.44 0.925860
2805.31 0.878500
2730.31 0.950520
2739.69 0.937480
2800.63 0.885200
2777.19 0.914220
2763.13 0.922500
2735.00 0.943300
2781.88 0.908820
2749.06 0.932800
2810.00 0.871900
2744.38 0.934500
2772.50 0.916600
2786.56 0.902220
2814.69 0.864300
2791.25 0.895560
2725.63 0.954120
2795.94 0.890460
2753.75 0.929560
