# Wavenumber,Transmittence
3105.31,0.997040
3138.13,1.000000
3049.06,0.960120
3063.13,0.985880
3081.88,0.994580
3077.19,0.992760
3095.94,0.996560
3067.81,0.988880
3114.69,0.998060
3086.56,0.995000
3072.50,0.991060
3100.63,0.997000
3142.81,1.000000
3091.25,0.995000
3133.44,1.000000
3124.06,1.000000
3110.00,0.997940
3058.44,0.982220
3128.75,1.000000
3053.75,0.973600
3119.38,0.999860
