# Wavenumber	Transmittence
864.69	0.821200
920.94	0.963400
906.88	0.846960
892.81	0.761400
916.25	0.938800
878.75	0.773480
902.19	0.798200
855.31	0.912600
939.69	0.990000
911.56	0.903400
930.31	0.983400
869.38	0.796200
935.00	0.986200
888.13	0.772040
860.00	0.862200
925.63	0.976000
944.38	0.992800
949.06	0.994000
874.06	0.803000
883.44	0.777200
897.50	0.777400
