# Wavenumber Transmittence
794.38 0.986800
799.06 0.985000
747.50 1.007400
831.88 0.984400
836.56 0.981400
813.13 0.985000
770.94 1.000800
827.19 0.985800
822.50 0.986000
780.31 0.993800
775.63 0.998000
756.88 1.006200
817.81 0.985400
785.00 0.991400
808.44 0.984800
761.56 1.005000
789.69 0.988600
841.25 0.978400
752.19 1.006200
803.75 0.984000
742.81 1.007000
766.25 1.004000
