# Wavenumber,Transmittence
3025.63,0.724220
2960.00,0.283840
3016.25,0.571840
2964.69,0.272920
3053.75,0.973600
3002.19,0.353180
2974.06,0.244240
2983.44,0.246100
2997.50,0.315940
3011.56,0.484880
3030.31,0.787900
3044.38,0.937260
3035.00,0.841600
2992.81,0.270540
2969.38,0.250020
3039.69,0.901400
2955.31,0.301820
2988.13,0.241720
3049.06,0.960120
3006.88,0.410360
3020.94,0.633360
2978.75,0.246240
