# Wavenumber Transmittence
1544.38 0.990400
1581.88 0.992600
1539.69 0.987800
1577.19 0.989600
1535.00 0.985200
1525.63 0.977800
1502.19 0.938200
1516.25 0.964800
1558.44 0.990200
1530.31 0.982800
1520.94 0.970800
1511.56 0.957600
1553.75 0.990400
1488.13 0.905200
1572.50 0.993200
1563.13 0.993200
1497.50 0.930400
1506.88 0.946000
1549.06 0.993200
1567.81 0.991400
1492.81 0.915400
