# Wavenumber Transmittence
855.31 0.912600
766.25 1.004000
803.75 0.984000
808.44 0.984800
785.00 0.991400
841.25 0.978400
789.69 0.988600
770.94 1.000800
831.88 0.984400
761.56 1.005000
780.31 0.993800
817.81 0.985400
794.38 0.986800
822.50 0.986000
850.63 0.945800
775.63 0.998000
845.94 0.969200
836.56 0.981400
799.06 0.985000
813.13 0.985000
827.19 0.985800
