# Wavenumber,Transmittence
2608.44,0.994080
2697.50,0.974280
2641.25,0.985960
2617.81,0.991040
2674.06,0.979840
2613.13,0.991940
2636.56,0.986800
2645.94,0.985060
2664.69,0.982000
2622.50,0.990200
2683.44,0.978060
2631.88,0.988000
2650.63,0.984220
2692.81,0.975820
2669.38,0.981220
2655.31,0.984000
2688.13,0.977280
2660.00,0.982440
2627.19,0.988420
2678.75,0.978960
