# Wavenumber,Transmittence
3499.06,1.002000
3485.00,1.001000
3522.50,1.003240
3494.38,1.001780
3489.69,1.001000
3438.13,1.001580
3461.56,0.998100
3541.25,1.000000
3475.63,1.000380
3545.94,1.000000
3513.13,1.004000
3536.56,1.000060
3456.88,0.999900
3470.94,1.000000
3517.81,1.004000
3466.25,0.998800
3452.19,1.000040
3503.75,1.002000
3447.50,1.000940
3527.19,1.002000
3442.81,1.001000
3480.31,1.001000
3508.44,1.002360
3531.88,1.001180
