# Wavenumber	Transmittence
1016.00	0.837460
1036.00	0.794580
961.00	0.854680
951.00	0.854100
1041.00	0.799360
986.00	0.849920
1006.00	0.843900
931.00	0.845260
1001.00	0.845920
1046.00	0.807360
1056.00	0.806180
1021.00	0.828440
936.00	0.846360
981.00	0.851180
991.00	0.848620
976.00	0.852280
1011.00	0.841400
941.00	0.848580
956.00	0.854820
1031.00	0.791240
966.00	0.854160
946.00	0.852600
1051.00	0.811160
1026.00	0.808840
971.00	0.853280
996.00	0.847280
