# Wavenumber	Transmittence
2291.00	0.855440
2311.00	0.858520
2316.00	0.859780
2276.00	0.853800
2221.00	0.850640
2226.00	0.850760
2236.00	0.851080
2251.00	0.851820
2231.00	0.850880
2271.00	0.853340
2241.00	0.851320
2246.00	0.851580
2306.00	0.857420
2216.00	0.850520
2281.00	0.854300
2286.00	0.854820
2301.00	0.856740
2296.00	0.855520
2256.00	0.852060
2266.00	0.852900
2261.00	0.852400
