# Wavenumber	Transmittence
781.00	0.839680
801.00	0.839520
731.00	0.215180
751.00	0.720140
766.00	0.839160
716.00	0.544160
786.00	0.844800
711.00	0.600100
811.00	0.841200
746.00	0.616260
821.00	0.838200
721.00	0.504080
761.00	0.831380
826.00	0.835960
756.00	0.805600
776.00	0.841260
741.00	0.525400
791.00	0.841320
806.00	0.841500
726.00	0.297800
701.00	0.675060
796.00	0.839020
706.00	0.634040
771.00	0.840960
816.00	0.836420
736.00	0.495900
