# Wavenumber Transmittence
656.00 0.858800
576.00 0.874900
626.00 0.871840
616.00 0.873920
666.00 0.845980
636.00 0.869540
611.00 0.874600
566.00 0.872500
591.00 0.876140
676.00 0.752280
571.00 0.873820
681.00 0.716000
601.00 0.875960
596.00 0.876260
631.00 0.870740
661.00 0.854620
561.00 0.870720
621.00 0.872960
691.00 0.663680
671.00 0.797500
606.00 0.875300
686.00 0.702340
646.00 0.864660
651.00 0.861960
586.00 0.875980
581.00 0.875540
641.00 0.867260
