# Wavenumber,Transmittence
1336.00,0.829600
1261.00,0.838880
1346.00,0.829080
1311.00,0.832580
1236.00,0.841860
1321.00,0.831400
1326.00,0.830860
1341.00,0.828900
1291.00,0.837660
1241.00,0.840460
1231.00,0.841020
1296.00,0.836400
1256.00,0.837260
1226.00,0.835920
1286.00,0.838200
1271.00,0.839580
1251.00,0.836920
1331.00,0.830300
1306.00,0.833740
1246.00,0.838500
1281.00,0.838640
1301.00,0.834980
1316.00,0.831900
1266.00,0.839540
1356.00,0.832000
1351.00,0.831080
1276.00,0.839120
