# Wavenumber,Transmittence
2006.00,0.838880
2061.00,0.840420
2076.00,0.841180
2046.00,0.839360
2021.00,0.839400
1996.00,0.838120
2031.00,0.839380
2086.00,0.841680
2016.00,0.839280
2081.00,0.841420
2066.00,0.840680
2091.00,0.841940
2056.00,0.840080
2071.00,0.840920
2036.00,0.839220
2051.00,0.839740
2041.00,0.839060
2011.00,0.839080
2026.00,0.839400
2001.00,0.838620
