# Wavenumber	Transmittence
931.00	0.845260
1011.00	0.841400
936.00	0.846360
1021.00	0.828440
921.00	0.843880
946.00	0.852600
986.00	0.849920
996.00	0.847280
1006.00	0.843900
981.00	0.851180
976.00	0.852280
961.00	0.854680
956.00	0.854820
1016.00	0.837460
926.00	0.844180
916.00	0.844400
951.00	0.854100
941.00	0.848580
991.00	0.848620
971.00	0.853280
1001.00	0.845920
966.00	0.854160
