# Wavenumber	Transmittence
2126.00	0.844020
2171.00	0.846720
2081.00	0.841420
2096.00	0.842280
2146.00	0.845120
2191.00	0.849200
2116.00	0.843460
2101.00	0.842520
2111.00	0.843120
2181.00	0.848120
2196.00	0.849700
2151.00	0.845320
2176.00	0.847380
2136.00	0.844580
2106.00	0.842860
2091.00	0.841940
2156.00	0.845580
2086.00	0.841680
2131.00	0.844320
2166.00	0.846120
2161.00	0.845820
2121.00	0.843720
2201.00	0.850120
2186.00	0.848800
2141.00	0.844840
