# Wavenumber,Transmittence
1551.00,0.805460
1536.00,0.783460
1596.00,0.778460
1546.00,0.797120
1506.00,0.643480
1581.00,0.805400
1576.00,0.803640
1556.00,0.804380
1571.00,0.807920
1541.00,0.789820
1606.00,0.734420
1521.00,0.768740
1526.00,0.779060
1586.00,0.807420
1516.00,0.720400
1566.00,0.808480
1601.00,0.752720
1591.00,0.796760
1511.00,0.652920
1611.00,0.719680
1561.00,0.804040
1531.00,0.780360
