# Wavenumber,Transmittence
681.00,0.716000
626.00,0.871840
756.00,0.805600
721.00,0.504080
751.00,0.720140
706.00,0.634040
736.00,0.495900
636.00,0.869540
711.00,0.600100
761.00,0.831380
691.00,0.663680
726.00,0.297800
731.00,0.215180
671.00,0.797500
641.00,0.867260
741.00,0.525400
686.00,0.702340
661.00,0.854620
746.00,0.616260
646.00,0.864660
656.00,0.858800
666.00,0.845980
716.00,0.544160
676.00,0.752280
696.00,0.404040
651.00,0.861960
701.00,0.675060
631.00,0.870740
