# Wavenumber Transmittence
1931.00 0.813960
1896.00 0.832440
1921.00 0.825440
1966.00 0.828340
1971.00 0.834500
1926.00 0.819500
1951.00 0.809120
1941.00 0.807640
1956.00 0.817040
1881.00 0.823780
1891.00 0.831520
1936.00 0.811720
1906.00 0.831060
1886.00 0.829440
1876.00 0.818080
1916.00 0.828160
1911.00 0.829860
1901.00 0.831680
1961.00 0.823860
1976.00 0.838940
1946.00 0.803140
