# Wavenumber,Transmittence
721.00,0.504080
731.00,0.215180
756.00,0.805600
726.00,0.297800
671.00,0.797500
746.00,0.616260
761.00,0.831380
691.00,0.663680
666.00,0.845980
686.00,0.702340
716.00,0.544160
661.00,0.854620
741.00,0.525400
711.00,0.600100
696.00,0.404040
681.00,0.716000
701.00,0.675060
706.00,0.634040
676.00,0.752280
736.00,0.495900
751.00,0.720140
