# Wavenumber,Transmittence
3381.00,0.871340
3336.00,0.868980
3326.00,0.868420
3371.00,0.870720
3361.00,0.870220
3356.00,0.869980
3316.00,0.867820
3346.00,0.869480
3296.00,0.866580
3331.00,0.868720
3341.00,0.869220
3386.00,0.871760
3351.00,0.869720
3366.00,0.870480
3301.00,0.866920
3286.00,0.865980
3321.00,0.868120
3306.00,0.867180
3376.00,0.870980
3311.00,0.867520
3291.00,0.866280
3281.00,0.865680
