# Wavenumber,Transmittence
636.00,0.869540
691.00,0.663680
646.00,0.864660
666.00,0.845980
696.00,0.404040
631.00,0.870740
741.00,0.525400
651.00,0.861960
736.00,0.495900
626.00,0.871840
716.00,0.544160
641.00,0.867260
711.00,0.600100
731.00,0.215180
701.00,0.675060
686.00,0.702340
661.00,0.854620
681.00,0.716000
721.00,0.504080
706.00,0.634040
656.00,0.858800
676.00,0.752280
726.00,0.297800
671.00,0.797500
