# Wavenumber,Transmittence
1031.00,0.791240
976.00,0.852280
1041.00,0.799360
1036.00,0.794580
991.00,0.848620
971.00,0.853280
1046.00,0.807360
981.00,0.851180
1006.00,0.843900
1026.00,0.808840
1011.00,0.841400
986.00,0.849920
996.00,0.847280
951.00,0.854100
961.00,0.854680
1001.00,0.845920
1016.00,0.837460
1021.00,0.828440
956.00,0.854820
946.00,0.852600
966.00,0.854160
