# Wavenumber,Transmittence
601.00,0.875960
651.00,0.861960
656.00,0.858800
646.00,0.864660
631.00,0.870740
596.00,0.876260
666.00,0.845980
641.00,0.867260
661.00,0.854620
591.00,0.876140
671.00,0.797500
636.00,0.869540
606.00,0.875300
576.00,0.874900
571.00,0.873820
611.00,0.874600
586.00,0.875980
566.00,0.872500
626.00,0.871840
616.00,0.873920
581.00,0.875540
676.00,0.752280
621.00,0.872960
