# Wavenumber Transmittence
3301.00 0.866920
3256.00 0.864520
3226.00 0.865800
3236.00 0.865020
3291.00 0.866280
3231.00 0.865220
3216.00 0.866900
3221.00 0.866340
3266.00 0.864760
3286.00 0.865980
3206.00 0.866740
3251.00 0.864640
3211.00 0.867260
3241.00 0.864880
3271.00 0.865040
3246.00 0.864760
3201.00 0.865420
3306.00 0.867180
3296.00 0.866580
3276.00 0.865380
3281.00 0.865680
3261.00 0.864440
3196.00 0.863800
