# Wavenumber Transmittence
2751.00 0.851480
2776.00 0.864300
2746.00 0.849680
2836.00 0.848840
2736.00 0.850520
2811.00 0.857840
2826.00 0.852380
2786.00 0.863280
2831.00 0.850580
2846.00 0.844520
2806.00 0.859720
2841.00 0.847700
2796.00 0.862420
2771.00 0.863740
2791.00 0.863020
2816.00 0.855980
2756.00 0.854760
2821.00 0.854140
2801.00 0.861400
2741.00 0.849640
2781.00 0.863780
2761.00 0.858680
2766.00 0.861720
2851.00 0.830880
