# Wavenumber Transmittence
3136.00 0.844460
3126.00 0.810080
3171.00 0.861680
3086.00 0.619060
3131.00 0.829940
3096.00 0.694640
3116.00 0.780180
3206.00 0.866740
3201.00 0.865420
3211.00 0.867260
3146.00 0.858100
3186.00 0.860840
3181.00 0.859980
3121.00 0.794920
3191.00 0.862280
3141.00 0.854080
3151.00 0.859680
3161.00 0.861680
3111.00 0.757980
3091.00 0.650380
3101.00 0.708440
3156.00 0.860760
3176.00 0.860460
3106.00 0.724060
3196.00 0.863800
3081.00 0.606960
3166.00 0.862160
