# Wavenumber	Transmittence
2116.00	0.843460
2021.00	0.839400
2066.00	0.840680
2041.00	0.839060
2111.00	0.843120
2046.00	0.839360
2096.00	0.842280
2076.00	0.841180
2091.00	0.841940
2051.00	0.839740
2126.00	0.844020
2036.00	0.839220
2056.00	0.840080
2106.00	0.842860
2031.00	0.839380
2061.00	0.840420
2081.00	0.841420
2071.00	0.840920
2121.00	0.843720
2086.00	0.841680
2101.00	0.842520
2026.00	0.839400
