# Wavenumber,Transmittence
3671.00,0.872420
3701.00,0.872420
3676.00,0.871720
3691.00,0.871360
3621.00,0.875380
3696.00,0.872020
3706.00,0.872680
3686.00,0.871200
3661.00,0.873620
3711.00,0.872680
3681.00,0.871220
3726.00,0.872360
3646.00,0.874380
3651.00,0.874120
3656.00,0.873880
3641.00,0.874620
3721.00,0.872440
3666.00,0.873180
3631.00,0.875080
3716.00,0.872560
3636.00,0.874880
3736.00,0.872160
3731.00,0.872240
3626.00,0.875220
