# Wavenumber,Transmittence
3336.00,0.868980
3326.00,0.868420
3251.00,0.864640
3321.00,0.868120
3276.00,0.865380
3306.00,0.867180
3266.00,0.864760
3236.00,0.865020
3316.00,0.867820
3241.00,0.864880
3291.00,0.866280
3271.00,0.865040
3231.00,0.865220
3296.00,0.866580
3311.00,0.867520
3286.00,0.865980
3331.00,0.868720
3256.00,0.864520
3226.00,0.865800
3301.00,0.866920
3261.00,0.864440
3246.00,0.864760
3281.00,0.865680
