# Wavenumber	Transmittence
726.00	0.297800
811.00	0.841200
801.00	0.839520
766.00	0.839160
791.00	0.841320
816.00	0.836420
741.00	0.525400
751.00	0.720140
786.00	0.844800
771.00	0.840960
821.00	0.838200
746.00	0.616260
736.00	0.495900
721.00	0.504080
781.00	0.839680
796.00	0.839020
731.00	0.215180
761.00	0.831380
776.00	0.841260
806.00	0.841500
756.00	0.805600
