# Wavenumber	Transmittence
3316.00	0.867820
3391.00	0.872140
3286.00	0.865980
3296.00	0.866580
3361.00	0.870220
3346.00	0.869480
3291.00	0.866280
3376.00	0.870980
3301.00	0.866920
3341.00	0.869220
3356.00	0.869980
3406.00	0.873360
3336.00	0.868980
3321.00	0.868120
3401.00	0.872940
3351.00	0.869720
3306.00	0.867180
3386.00	0.871760
3311.00	0.867520
3331.00	0.868720
3371.00	0.870720
3381.00	0.871340
3326.00	0.868420
3396.00	0.872560
3366.00	0.870480
