# Wavenumber,Transmittence
896.00,0.841280
936.00,0.846360
886.00,0.839760
991.00,0.848620
1016.00,0.837460
996.00,0.847280
1011.00,0.841400
931.00,0.845260
976.00,0.852280
946.00,0.852600
956.00,0.854820
911.00,0.844860
971.00,0.853280
1006.00,0.843900
1001.00,0.845920
981.00,0.851180
901.00,0.844540
941.00,0.848580
966.00,0.854160
906.00,0.845000
926.00,0.844180
916.00,0.844400
891.00,0.838120
986.00,0.849920
921.00,0.843880
951.00,0.854100
961.00,0.854680
