# Wavenumber Transmittence
3301.00 0.866920
3346.00 0.869480
3311.00 0.867520
3351.00 0.869720
3361.00 0.870220
3356.00 0.869980
3276.00 0.865380
3366.00 0.870480
3321.00 0.868120
3296.00 0.866580
3316.00 0.867820
3291.00 0.866280
3371.00 0.870720
3286.00 0.865980
3281.00 0.865680
3336.00 0.868980
3331.00 0.868720
3306.00 0.867180
3326.00 0.868420
3341.00 0.869220
