# Wavenumber	Transmittence
2286.00	0.854820
2281.00	0.854300
2341.00	0.863040
2331.00	0.863720
2251.00	0.851820
2351.00	0.864360
2291.00	0.855440
2271.00	0.853340
2276.00	0.853800
2316.00	0.859780
2346.00	0.862460
2266.00	0.852900
2301.00	0.856740
2336.00	0.863880
2261.00	0.852400
2306.00	0.857420
2311.00	0.858520
2256.00	0.852060
2326.00	0.862600
2321.00	0.861100
2296.00	0.855520
