# Wavenumber	Transmittence
3411.00	0.873740
3421.00	0.874420
3391.00	0.872140
3336.00	0.868980
3406.00	0.873360
3371.00	0.870720
3426.00	0.874680
3386.00	0.871760
3361.00	0.870220
3356.00	0.869980
3341.00	0.869220
3376.00	0.870980
3346.00	0.869480
3351.00	0.869720
3316.00	0.867820
3321.00	0.868120
3306.00	0.867180
3331.00	0.868720
3396.00	0.872560
3326.00	0.868420
3381.00	0.871340
3416.00	0.874160
3366.00	0.870480
3311.00	0.867520
3401.00	0.872940
3431.00	0.874920
