# Wavenumber Transmittence
611.00 0.874600
676.00 0.752280
576.00 0.874900
561.00 0.870720
651.00 0.861960
551.00 0.867080
556.00 0.868880
546.00 0.865380
601.00 0.875960
581.00 0.875540
646.00 0.864660
571.00 0.873820
641.00 0.867260
666.00 0.845980
661.00 0.854620
631.00 0.870740
606.00 0.875300
621.00 0.872960
636.00 0.869540
591.00 0.876140
656.00 0.858800
566.00 0.872500
616.00 0.873920
671.00 0.797500
586.00 0.875980
681.00 0.716000
626.00 0.871840
596.00 0.876260
