# Wavenumber,Transmittence
716.00,0.544160
741.00,0.525400
671.00,0.797500
666.00,0.845980
706.00,0.634040
641.00,0.867260
721.00,0.504080
631.00,0.870740
696.00,0.404040
736.00,0.495900
646.00,0.864660
651.00,0.861960
656.00,0.858800
681.00,0.716000
726.00,0.297800
711.00,0.600100
636.00,0.869540
661.00,0.854620
686.00,0.702340
746.00,0.616260
731.00,0.215180
701.00,0.675060
691.00,0.663680
676.00,0.752280
