# Wavenumber	Transmittence
2021.00	0.839400
1976.00	0.838940
2016.00	0.839280
1961.00	0.823860
2006.00	0.838880
1981.00	0.838560
1996.00	0.838120
2026.00	0.839400
2046.00	0.839360
2036.00	0.839220
1936.00	0.811720
1951.00	0.809120
1941.00	0.807640
2011.00	0.839080
2041.00	0.839060
1956.00	0.817040
1986.00	0.837880
2031.00	0.839380
1966.00	0.828340
2001.00	0.838620
1946.00	0.803140
1971.00	0.834500
1991.00	0.837800
