# Wavenumber,Transmittence
866.00,0.844980
806.00,0.841500
826.00,0.835960
841.00,0.838840
821.00,0.838200
791.00,0.841320
781.00,0.839680
776.00,0.841260
871.00,0.845080
816.00,0.836420
861.00,0.844300
856.00,0.843380
846.00,0.841200
801.00,0.839520
851.00,0.842460
796.00,0.839020
771.00,0.840960
836.00,0.835140
831.00,0.832100
811.00,0.841200
786.00,0.844800
