# Wavenumber Transmittence
561.00 0.870720
586.00 0.875980
536.00 0.862060
646.00 0.864660
626.00 0.871840
631.00 0.870740
516.00 0.866700
566.00 0.872500
591.00 0.876140
581.00 0.875540
571.00 0.873820
601.00 0.875960
576.00 0.874900
526.00 0.859220
551.00 0.867080
611.00 0.874600
641.00 0.867260
596.00 0.876260
546.00 0.865380
541.00 0.863700
606.00 0.875300
636.00 0.869540
511.00 0.869920
621.00 0.872960
531.00 0.860500
556.00 0.868880
616.00 0.873920
521.00 0.861760
