# Wavenumber Transmittence
2246.00 0.851580
2226.00 0.850760
2161.00 0.845820
2211.00 0.850380
2256.00 0.852060
2166.00 0.846120
2231.00 0.850880
2221.00 0.850640
2236.00 0.851080
2191.00 0.849200
2251.00 0.851820
2151.00 0.845320
2216.00 0.850520
2181.00 0.848120
2171.00 0.846720
2186.00 0.848800
2241.00 0.851320
2206.00 0.850260
2156.00 0.845580
2176.00 0.847380
2196.00 0.849700
2201.00 0.850120
