# Wavenumber,Transmittence
1256.00,0.837260
1311.00,0.832580
1346.00,0.829080
1351.00,0.831080
1251.00,0.836920
1366.00,0.820360
1276.00,0.839120
1261.00,0.838880
1321.00,0.831400
1296.00,0.836400
1361.00,0.829300
1291.00,0.837660
1331.00,0.830300
1266.00,0.839540
1301.00,0.834980
1336.00,0.829600
1316.00,0.831900
1356.00,0.832000
1281.00,0.838640
1286.00,0.838200
1326.00,0.830860
1271.00,0.839580
1341.00,0.828900
1306.00,0.833740
