# Wavenumber Transmittence
481.00 0.845540
546.00 0.865380
466.00 0.782880
496.00 0.871440
506.00 0.872020
516.00 0.866700
511.00 0.869920
486.00 0.856180
521.00 0.861760
561.00 0.870720
501.00 0.872600
531.00 0.860500
461.00 0.788240
556.00 0.868880
456.00 0.795540
491.00 0.867160
471.00 0.819700
526.00 0.859220
551.00 0.867080
541.00 0.863700
536.00 0.862060
476.00 0.838200
