# Wavenumber	Transmittence
2256.00	0.852060
2276.00	0.853800
2316.00	0.859780
2296.00	0.855520
2291.00	0.855440
2241.00	0.851320
2246.00	0.851580
2301.00	0.856740
2326.00	0.862600
2306.00	0.857420
2336.00	0.863880
2251.00	0.851820
2261.00	0.852400
2271.00	0.853340
2281.00	0.854300
2311.00	0.858520
2321.00	0.861100
2286.00	0.854820
2266.00	0.852900
2331.00	0.863720
2341.00	0.863040
