# Wavenumber,Transmittence
811.00,0.841200
906.00,0.845000
901.00,0.844540
806.00,0.841500
916.00,0.844400
836.00,0.835140
876.00,0.845640
866.00,0.844980
896.00,0.841280
846.00,0.841200
831.00,0.832100
826.00,0.835960
871.00,0.845080
891.00,0.838120
821.00,0.838200
911.00,0.844860
816.00,0.836420
841.00,0.838840
886.00,0.839760
926.00,0.844180
861.00,0.844300
881.00,0.843140
796.00,0.839020
921.00,0.843880
791.00,0.841320
801.00,0.839520
856.00,0.843380
851.00,0.842460
