# Wavenumber Transmittence
2576.00 0.857120
2616.00 0.860100
2611.00 0.859600
2631.00 0.862140
2551.00 0.858920
2606.00 0.858860
2581.00 0.857000
2571.00 0.857340
2561.00 0.858140
2546.00 0.859260
2596.00 0.857280
2621.00 0.860720
2541.00 0.859520
2636.00 0.862760
2556.00 0.858520
2626.00 0.861480
2566.00 0.857720
2601.00 0.857740
2646.00 0.863180
2591.00 0.857020
2586.00 0.856920
2641.00 0.862980
2536.00 0.859780
2651.00 0.863420
