# Wavenumber Transmittence
861.00 0.844300
816.00 0.836420
846.00 0.841200
841.00 0.838840
831.00 0.832100
871.00 0.845080
821.00 0.838200
826.00 0.835960
836.00 0.835140
881.00 0.843140
856.00 0.843380
886.00 0.839760
806.00 0.841500
811.00 0.841200
916.00 0.844400
876.00 0.845640
921.00 0.843880
896.00 0.841280
901.00 0.844540
926.00 0.844180
851.00 0.842460
906.00 0.845000
891.00 0.838120
911.00 0.844860
866.00 0.844980
