# Wavenumber Transmittence
616.00 0.873920
656.00 0.858800
676.00 0.752280
606.00 0.875300
651.00 0.861960
691.00 0.663680
686.00 0.702340
696.00 0.404040
711.00 0.600100
701.00 0.675060
626.00 0.871840
621.00 0.872960
611.00 0.874600
661.00 0.854620
641.00 0.867260
666.00 0.845980
681.00 0.716000
636.00 0.869540
631.00 0.870740
601.00 0.875960
671.00 0.797500
716.00 0.544160
706.00 0.634040
646.00 0.864660
