# Wavenumber Transmittence
2921.00 0.667880
2876.00 0.731160
2931.00 0.618560
2966.00 0.761280
2936.00 0.616840
2926.00 0.631860
2911.00 0.766940
2946.00 0.657160
2896.00 0.759360
2961.00 0.747520
2891.00 0.736900
2901.00 0.773500
2981.00 0.757460
2956.00 0.730640
2941.00 0.625220
2951.00 0.704520
2906.00 0.772900
2886.00 0.723160
2971.00 0.767580
2866.00 0.779600
2881.00 0.719880
2871.00 0.753680
2976.00 0.764380
2916.00 0.736060
