# Wavenumber Transmittence
1926.00 0.819500
1976.00 0.838940
2016.00 0.839280
1961.00 0.823860
2021.00 0.839400
1946.00 0.803140
2001.00 0.838620
1951.00 0.809120
2011.00 0.839080
1931.00 0.813960
1981.00 0.838560
1941.00 0.807640
2006.00 0.838880
1936.00 0.811720
1991.00 0.837800
1966.00 0.828340
1956.00 0.817040
1996.00 0.838120
1971.00 0.834500
1986.00 0.837880
