# Wavenumber	Transmittence
736.00	0.495900
756.00	0.805600
651.00	0.861960
686.00	0.702340
691.00	0.663680
656.00	0.858800
716.00	0.544160
676.00	0.752280
681.00	0.716000
701.00	0.675060
641.00	0.867260
666.00	0.845980
671.00	0.797500
711.00	0.600100
636.00	0.869540
721.00	0.504080
746.00	0.616260
751.00	0.720140
741.00	0.525400
661.00	0.854620
696.00	0.404040
646.00	0.864660
706.00	0.634040
731.00	0.215180
761.00	0.831380
726.00	0.297800
