# Wavenumber	Transmittence
3361.00	0.870220
3391.00	0.872140
3336.00	0.868980
3376.00	0.870980
3421.00	0.874420
3351.00	0.869720
3331.00	0.868720
3371.00	0.870720
3366.00	0.870480
3326.00	0.868420
3406.00	0.873360
3346.00	0.869480
3401.00	0.872940
3411.00	0.873740
3356.00	0.869980
3426.00	0.874680
3396.00	0.872560
3381.00	0.871340
3341.00	0.869220
3386.00	0.871760
3321.00	0.868120
3416.00	0.874160
