# Wavenumber	Transmittence
901.00	0.844540
866.00	0.844980
991.00	0.848620
926.00	0.844180
961.00	0.854680
931.00	0.845260
881.00	0.843140
911.00	0.844860
876.00	0.845640
891.00	0.838120
981.00	0.851180
946.00	0.852600
886.00	0.839760
956.00	0.854820
896.00	0.841280
951.00	0.854100
906.00	0.845000
966.00	0.854160
871.00	0.845080
971.00	0.853280
941.00	0.848580
996.00	0.847280
976.00	0.852280
986.00	0.849920
916.00	0.844400
921.00	0.843880
936.00	0.846360
