# Wavenumber	Transmittence
681.00	0.716000
686.00	0.702340
711.00	0.600100
786.00	0.844800
791.00	0.841320
691.00	0.663680
721.00	0.504080
701.00	0.675060
771.00	0.840960
741.00	0.525400
696.00	0.404040
761.00	0.831380
776.00	0.841260
726.00	0.297800
706.00	0.634040
781.00	0.839680
736.00	0.495900
751.00	0.720140
746.00	0.616260
756.00	0.805600
731.00	0.215180
716.00	0.544160
766.00	0.839160
