# Wavenumber,Transmittence
486.00,0.856180
476.00,0.838200
561.00,0.870720
581.00,0.875540
591.00,0.876140
511.00,0.869920
461.00,0.788240
471.00,0.819700
546.00,0.865380
566.00,0.872500
521.00,0.861760
501.00,0.872600
596.00,0.876260
466.00,0.782880
496.00,0.871440
541.00,0.863700
481.00,0.845540
556.00,0.868880
571.00,0.873820
586.00,0.875980
551.00,0.867080
526.00,0.859220
576.00,0.874900
506.00,0.872020
516.00,0.866700
456.00,0.795540
531.00,0.860500
536.00,0.862060
491.00,0.867160
