# Wavenumber	Transmittence
611.00	0.874600
671.00	0.797500
606.00	0.875300
601.00	0.875960
616.00	0.873920
696.00	0.404040
646.00	0.864660
686.00	0.702340
656.00	0.858800
621.00	0.872960
676.00	0.752280
626.00	0.871840
651.00	0.861960
631.00	0.870740
681.00	0.716000
641.00	0.867260
701.00	0.675060
636.00	0.869540
661.00	0.854620
666.00	0.845980
596.00	0.876260
691.00	0.663680
