# Wavenumber,Transmittence
2241.00,0.851320
2226.00,0.850760
2206.00,0.850260
2201.00,0.850120
2231.00,0.850880
2236.00,0.851080
2271.00,0.853340
2261.00,0.852400
2246.00,0.851580
2251.00,0.851820
2266.00,0.852900
2211.00,0.850380
2281.00,0.854300
2296.00,0.855520
2286.00,0.854820
2221.00,0.850640
2291.00,0.855440
2216.00,0.850520
2256.00,0.852060
2276.00,0.853800
