# Wavenumber,Transmittence
516.00,0.866700
521.00,0.861760
576.00,0.874900
531.00,0.860500
506.00,0.872020
601.00,0.875960
561.00,0.870720
621.00,0.872960
511.00,0.869920
616.00,0.873920
586.00,0.875980
631.00,0.870740
596.00,0.876260
551.00,0.867080
571.00,0.873820
556.00,0.868880
591.00,0.876140
501.00,0.872600
546.00,0.865380
606.00,0.875300
611.00,0.874600
566.00,0.872500
581.00,0.875540
536.00,0.862060
636.00,0.869540
526.00,0.859220
541.00,0.863700
626.00,0.871840
