# Wavenumber,Transmittence
1521.00,0.768740
1466.00,0.751320
1486.00,0.743900
1546.00,0.797120
1516.00,0.720400
1496.00,0.637780
1566.00,0.808480
1561.00,0.804040
1511.00,0.652920
1536.00,0.783460
1491.00,0.677860
1476.00,0.752060
1526.00,0.779060
1471.00,0.751780
1501.00,0.601200
1506.00,0.643480
1541.00,0.789820
1551.00,0.805460
1556.00,0.804380
1531.00,0.780360
1481.00,0.758640
