# Wavenumber Transmittence
2881.00 0.719880
2856.00 0.815980
2911.00 0.766940
2961.00 0.747520
2941.00 0.625220
2861.00 0.800440
2841.00 0.847700
2916.00 0.736060
2846.00 0.844520
2851.00 0.830880
2891.00 0.736900
2936.00 0.616840
2871.00 0.753680
2866.00 0.779600
2951.00 0.704520
2896.00 0.759360
2946.00 0.657160
2926.00 0.631860
2901.00 0.773500
2956.00 0.730640
2906.00 0.772900
2886.00 0.723160
2931.00 0.618560
2921.00 0.667880
2876.00 0.731160
