# Wavenumber,Transmittence
981.00,0.851180
966.00,0.854160
996.00,0.847280
921.00,0.843880
1011.00,0.841400
961.00,0.854680
986.00,0.849920
941.00,0.848580
901.00,0.844540
951.00,0.854100
906.00,0.845000
971.00,0.853280
956.00,0.854820
976.00,0.852280
1001.00,0.845920
931.00,0.845260
916.00,0.844400
936.00,0.846360
1021.00,0.828440
1006.00,0.843900
926.00,0.844180
946.00,0.852600
1016.00,0.837460
991.00,0.848620
911.00,0.844860
