# Wavenumber	Transmittence
601.00	0.875960
556.00	0.868880
586.00	0.875980
561.00	0.870720
521.00	0.861760
576.00	0.874900
541.00	0.863700
551.00	0.867080
636.00	0.869540
591.00	0.876140
611.00	0.874600
631.00	0.870740
616.00	0.873920
516.00	0.866700
536.00	0.862060
606.00	0.875300
571.00	0.873820
621.00	0.872960
626.00	0.871840
596.00	0.876260
506.00	0.872020
581.00	0.875540
546.00	0.865380
531.00	0.860500
501.00	0.872600
566.00	0.872500
511.00	0.869920
526.00	0.859220
