# Wavenumber,Transmittence
546.00,0.865380
526.00,0.859220
491.00,0.867160
486.00,0.856180
481.00,0.845540
541.00,0.863700
516.00,0.866700
501.00,0.872600
506.00,0.872020
476.00,0.838200
456.00,0.795540
466.00,0.782880
531.00,0.860500
461.00,0.788240
536.00,0.862060
551.00,0.867080
561.00,0.870720
521.00,0.861760
556.00,0.868880
471.00,0.819700
496.00,0.871440
511.00,0.869920
