# Wavenumber Transmittence
646.00 0.864660
666.00 0.845980
731.00 0.215180
641.00 0.867260
751.00 0.720140
706.00 0.634040
716.00 0.544160
711.00 0.600100
691.00 0.663680
726.00 0.297800
701.00 0.675060
671.00 0.797500
736.00 0.495900
661.00 0.854620
656.00 0.858800
651.00 0.861960
681.00 0.716000
746.00 0.616260
721.00 0.504080
686.00 0.702340
676.00 0.752280
741.00 0.525400
696.00 0.404040
