# Wavenumber,Transmittence
1591.00,0.796760
1636.00,0.822500
1696.00,0.832460
1691.00,0.831180
1671.00,0.827600
1641.00,0.827800
1686.00,0.829800
1701.00,0.832100
1631.00,0.794860
1611.00,0.719680
1676.00,0.828460
1681.00,0.829120
1666.00,0.827600
1616.00,0.728360
1661.00,0.827700
1646.00,0.827800
1656.00,0.827700
1596.00,0.778460
1621.00,0.749780
1601.00,0.752720
1606.00,0.734420
1651.00,0.827720
1626.00,0.774280
