# Wavenumber Transmittence
3566.00 0.877060
3501.00 0.877380
3521.00 0.877600
3486.00 0.877100
3551.00 0.877540
3481.00 0.876980
3526.00 0.877600
3561.00 0.877220
3531.00 0.877600
3511.00 0.877500
3556.00 0.877380
3441.00 0.875420
3516.00 0.877520
3451.00 0.875920
3436.00 0.875180
3546.00 0.877600
3476.00 0.876900
3446.00 0.875680
3461.00 0.876420
3456.00 0.876180
3506.00 0.877040
3471.00 0.876800
3541.00 0.877600
3496.00 0.877300
3466.00 0.876680
3536.00 0.877600
3491.00 0.877180
