# Wavenumber	Transmittence
566.00	0.872500
556.00	0.868880
561.00	0.870720
616.00	0.873920
636.00	0.869540
661.00	0.854620
651.00	0.861960
656.00	0.858800
601.00	0.875960
586.00	0.875980
611.00	0.874600
591.00	0.876140
666.00	0.845980
631.00	0.870740
621.00	0.872960
576.00	0.874900
606.00	0.875300
571.00	0.873820
641.00	0.867260
646.00	0.864660
581.00	0.875540
596.00	0.876260
626.00	0.871840
671.00	0.797500
