# Wavenumber	Transmittence
3416.00	0.874160
3441.00	0.875420
3446.00	0.875680
3451.00	0.875920
3421.00	0.874420
3411.00	0.873740
3401.00	0.872940
3466.00	0.876680
3386.00	0.871760
3371.00	0.870720
3406.00	0.873360
3391.00	0.872140
3366.00	0.870480
3376.00	0.870980
3361.00	0.870220
3426.00	0.874680
3461.00	0.876420
3456.00	0.876180
3476.00	0.876900
3381.00	0.871340
3396.00	0.872560
3471.00	0.876800
3436.00	0.875180
3481.00	0.876980
3431.00	0.874920
