# Wavenumber	Transmittence
3536.00	0.877600
3531.00	0.877600
3571.00	0.876880
3561.00	0.877220
3506.00	0.877040
3491.00	0.877180
3511.00	0.877500
3496.00	0.877300
3551.00	0.877540
3541.00	0.877600
3566.00	0.877060
3501.00	0.877380
3516.00	0.877520
3576.00	0.876760
3526.00	0.877600
3556.00	0.877380
3521.00	0.877600
3546.00	0.877600
3486.00	0.877100
3581.00	0.876580
