# Wavenumber	Transmittence
836.00	0.835140
881.00	0.843140
941.00	0.848580
866.00	0.844980
931.00	0.845260
876.00	0.845640
851.00	0.842460
906.00	0.845000
891.00	0.838120
831.00	0.832100
871.00	0.845080
916.00	0.844400
956.00	0.854820
911.00	0.844860
951.00	0.854100
936.00	0.846360
921.00	0.843880
846.00	0.841200
946.00	0.852600
886.00	0.839760
861.00	0.844300
901.00	0.844540
841.00	0.838840
896.00	0.841280
926.00	0.844180
856.00	0.843380
