# Wavenumber	Transmittence
801.00	0.839520
796.00	0.839020
826.00	0.835960
776.00	0.841260
821.00	0.838200
816.00	0.836420
866.00	0.844980
841.00	0.838840
836.00	0.835140
861.00	0.844300
856.00	0.843380
806.00	0.841500
871.00	0.845080
831.00	0.832100
791.00	0.841320
786.00	0.844800
781.00	0.839680
851.00	0.842460
876.00	0.845640
846.00	0.841200
811.00	0.841200
