# Wavenumber Transmittence
2921.00 0.667880
2946.00 0.657160
3001.00 0.712100
2951.00 0.704520
2956.00 0.730640
2986.00 0.749740
2966.00 0.761280
2926.00 0.631860
2981.00 0.757460
2896.00 0.759360
2961.00 0.747520
2971.00 0.767580
2931.00 0.618560
2911.00 0.766940
2901.00 0.773500
2996.00 0.727660
2936.00 0.616840
2976.00 0.764380
2916.00 0.736060
2991.00 0.739980
2906.00 0.772900
2941.00 0.625220
