# Wavenumber Transmittence
3276.00 0.865380
3306.00 0.867180
3356.00 0.869980
3311.00 0.867520
3316.00 0.867820
3341.00 0.869220
3366.00 0.870480
3281.00 0.865680
3296.00 0.866580
3346.00 0.869480
3321.00 0.868120
3291.00 0.866280
3286.00 0.865980
3361.00 0.870220
3331.00 0.868720
3351.00 0.869720
3326.00 0.868420
3371.00 0.870720
3336.00 0.868980
3301.00 0.866920
