# Wavenumber,Transmittence
541.00,0.863700
506.00,0.872020
536.00,0.862060
581.00,0.875540
601.00,0.875960
571.00,0.873820
606.00,0.875300
611.00,0.874600
591.00,0.876140
586.00,0.875980
631.00,0.870740
566.00,0.872500
546.00,0.865380
521.00,0.861760
576.00,0.874900
526.00,0.859220
561.00,0.870720
551.00,0.867080
616.00,0.873920
621.00,0.872960
596.00,0.876260
516.00,0.866700
556.00,0.868880
531.00,0.860500
626.00,0.871840
511.00,0.869920
