# Wavenumber Transmittence
871.00 0.845080
956.00 0.854820
961.00 0.854680
891.00 0.838120
911.00 0.844860
931.00 0.845260
941.00 0.848580
946.00 0.852600
921.00 0.843880
886.00 0.839760
876.00 0.845640
866.00 0.844980
906.00 0.845000
861.00 0.844300
916.00 0.844400
951.00 0.854100
926.00 0.844180
851.00 0.842460
846.00 0.841200
856.00 0.843380
901.00 0.844540
936.00 0.846360
896.00 0.841280
881.00 0.843140
