# Wavenumber Transmittence
961.00 0.854680
946.00 0.852600
891.00 0.838120
871.00 0.845080
901.00 0.844540
906.00 0.845000
846.00 0.841200
881.00 0.843140
926.00 0.844180
851.00 0.842460
916.00 0.844400
951.00 0.854100
886.00 0.839760
876.00 0.845640
896.00 0.841280
956.00 0.854820
841.00 0.838840
941.00 0.848580
911.00 0.844860
936.00 0.846360
856.00 0.843380
931.00 0.845260
861.00 0.844300
866.00 0.844980
921.00 0.843880
