# Wavenumber Transmittence
1191.00 0.840040
1181.00 0.834640
1236.00 0.841860
1201.00 0.839380
1241.00 0.840460
1186.00 0.837700
1196.00 0.840140
1166.00 0.842760
1151.00 0.845900
1246.00 0.838500
1231.00 0.841020
1226.00 0.835920
1251.00 0.836920
1156.00 0.844580
1216.00 0.833240
1171.00 0.839400
1176.00 0.835140
1146.00 0.847400
1211.00 0.834900
1161.00 0.843880
1261.00 0.838880
1221.00 0.833100
1256.00 0.837260
1206.00 0.837300
