# Wavenumber,Transmittence
3561.00,0.877220
3556.00,0.877380
3576.00,0.876760
3641.00,0.874620
3611.00,0.875640
3596.00,0.876080
3616.00,0.875520
3651.00,0.874120
3646.00,0.874380
3626.00,0.875220
3586.00,0.876420
3606.00,0.875820
3671.00,0.872420
3591.00,0.876240
3571.00,0.876880
3661.00,0.873620
3601.00,0.875940
3656.00,0.873880
3621.00,0.875380
3666.00,0.873180
3631.00,0.875080
3566.00,0.877060
3636.00,0.874880
3581.00,0.876580
