# Wavenumber Transmittence
1661.00 0.827700
1671.00 0.827600
1646.00 0.827800
1636.00 0.822500
1656.00 0.827700
1631.00 0.794860
1626.00 0.774280
1666.00 0.827600
1651.00 0.827720
1641.00 0.827800
1616.00 0.728360
1731.00 0.824200
1621.00 0.749780
1711.00 0.829960
1726.00 0.825040
1721.00 0.826340
1681.00 0.829120
1691.00 0.831180
1686.00 0.829800
1696.00 0.832460
1716.00 0.828200
1676.00 0.828460
1701.00 0.832100
1706.00 0.831480
1736.00 0.824060
