# Wavenumber,Transmittence
966.00,0.854160
1006.00,0.843900
1031.00,0.791240
1011.00,0.841400
1021.00,0.828440
956.00,0.854820
1061.00,0.800740
986.00,0.849920
1051.00,0.811160
1041.00,0.799360
1056.00,0.806180
1026.00,0.808840
1036.00,0.794580
991.00,0.848620
1016.00,0.837460
981.00,0.851180
961.00,0.854680
971.00,0.853280
976.00,0.852280
1001.00,0.845920
996.00,0.847280
1046.00,0.807360
1066.00,0.792680
