# Wavenumber,Transmittence
1801.00,0.807560
1766.00,0.826480
1776.00,0.820540
1781.00,0.816860
1831.00,0.827600
1796.00,0.807000
1836.00,0.825160
1746.00,0.831500
1791.00,0.809540
1771.00,0.824000
1806.00,0.811380
1751.00,0.831840
1786.00,0.813120
1761.00,0.828860
1826.00,0.828800
1816.00,0.821880
1821.00,0.827380
1846.00,0.816020
1841.00,0.821140
1811.00,0.815480
1756.00,0.831040
