# Wavenumber	Transmittence
2946.00	0.657160
2861.00	0.800440
2846.00	0.844520
2901.00	0.773500
2936.00	0.616840
2841.00	0.847700
2906.00	0.772900
2921.00	0.667880
2876.00	0.731160
2866.00	0.779600
2931.00	0.618560
2871.00	0.753680
2911.00	0.766940
2856.00	0.815980
2941.00	0.625220
2896.00	0.759360
2926.00	0.631860
2951.00	0.704520
2916.00	0.736060
2881.00	0.719880
2886.00	0.723160
2891.00	0.736900
2836.00	0.848840
2851.00	0.830880
