# Wavenumber Transmittence
901.00 0.844540
881.00 0.843140
856.00 0.843380
871.00 0.845080
861.00 0.844300
846.00 0.841200
876.00 0.845640
916.00 0.844400
911.00 0.844860
946.00 0.852600
866.00 0.844980
921.00 0.843880
936.00 0.846360
886.00 0.839760
906.00 0.845000
926.00 0.844180
941.00 0.848580
931.00 0.845260
851.00 0.842460
891.00 0.838120
896.00 0.841280
