# Wavenumber,Transmittence
551.00,0.867080
466.00,0.782880
496.00,0.871440
461.00,0.788240
521.00,0.861760
506.00,0.872020
476.00,0.838200
486.00,0.856180
481.00,0.845540
561.00,0.870720
456.00,0.795540
526.00,0.859220
516.00,0.866700
501.00,0.872600
531.00,0.860500
536.00,0.862060
556.00,0.868880
541.00,0.863700
491.00,0.867160
511.00,0.869920
471.00,0.819700
546.00,0.865380
