# Wavenumber,Transmittence
3266.00,0.864760
3186.00,0.860840
3256.00,0.864520
3271.00,0.865040
3231.00,0.865220
3221.00,0.866340
3241.00,0.864880
3211.00,0.867260
3206.00,0.866740
3181.00,0.859980
3261.00,0.864440
3281.00,0.865680
3276.00,0.865380
3216.00,0.866900
3201.00,0.865420
3191.00,0.862280
3176.00,0.860460
3246.00,0.864760
3226.00,0.865800
3251.00,0.864640
3196.00,0.863800
3236.00,0.865020
