# Wavenumber Transmittence
2351.00 0.864360
2371.00 0.865300
2396.00 0.855520
2386.00 0.857120
2301.00 0.856740
2281.00 0.854300
2291.00 0.855440
2361.00 0.869960
2376.00 0.861100
2286.00 0.854820
2331.00 0.863720
2391.00 0.856100
2316.00 0.859780
2381.00 0.858320
2346.00 0.862460
2311.00 0.858520
2326.00 0.862600
2296.00 0.855520
2276.00 0.853800
2356.00 0.868480
2306.00 0.857420
2321.00 0.861100
2401.00 0.855720
2341.00 0.863040
2336.00 0.863880
2366.00 0.868260
