# Wavenumber,Transmittence
546.00,0.865380
586.00,0.875980
591.00,0.876140
556.00,0.868880
526.00,0.859220
471.00,0.819700
456.00,0.795540
596.00,0.876260
466.00,0.782880
521.00,0.861760
516.00,0.866700
561.00,0.870720
486.00,0.856180
581.00,0.875540
531.00,0.860500
506.00,0.872020
491.00,0.867160
551.00,0.867080
476.00,0.838200
566.00,0.872500
481.00,0.845540
536.00,0.862060
511.00,0.869920
461.00,0.788240
496.00,0.871440
576.00,0.874900
501.00,0.872600
541.00,0.863700
571.00,0.873820
