# Wavenumber Transmittence
951.00 0.854100
971.00 0.853280
966.00 0.854160
901.00 0.844540
896.00 0.841280
946.00 0.852600
911.00 0.844860
1016.00 0.837460
936.00 0.846360
921.00 0.843880
961.00 0.854680
1026.00 0.808840
976.00 0.852280
1011.00 0.841400
996.00 0.847280
986.00 0.849920
941.00 0.848580
906.00 0.845000
1001.00 0.845920
991.00 0.848620
916.00 0.844400
926.00 0.844180
1006.00 0.843900
931.00 0.845260
981.00 0.851180
1021.00 0.828440
956.00 0.854820
