# Wavenumber	Transmittence
846.00	0.841200
966.00	0.854160
951.00	0.854100
916.00	0.844400
851.00	0.842460
931.00	0.845260
961.00	0.854680
941.00	0.848580
971.00	0.853280
881.00	0.843140
936.00	0.846360
861.00	0.844300
901.00	0.844540
956.00	0.854820
886.00	0.839760
871.00	0.845080
896.00	0.841280
911.00	0.844860
926.00	0.844180
891.00	0.838120
841.00	0.838840
836.00	0.835140
946.00	0.852600
876.00	0.845640
856.00	0.843380
906.00	0.845000
921.00	0.843880
866.00	0.844980
