# Wavenumber Transmittence
756.00 0.805600
716.00 0.544160
736.00 0.495900
776.00 0.841260
751.00 0.720140
811.00 0.841200
791.00 0.841320
706.00 0.634040
731.00 0.215180
801.00 0.839520
741.00 0.525400
806.00 0.841500
701.00 0.675060
796.00 0.839020
781.00 0.839680
761.00 0.831380
746.00 0.616260
721.00 0.504080
771.00 0.840960
816.00 0.836420
821.00 0.838200
726.00 0.297800
711.00 0.600100
766.00 0.839160
786.00 0.844800
