# Wavenumber	Transmittence
2156.00	0.845580
2181.00	0.848120
2101.00	0.842520
2091.00	0.841940
2186.00	0.848800
2096.00	0.842280
2176.00	0.847380
2171.00	0.846720
2131.00	0.844320
2106.00	0.842860
2141.00	0.844840
2076.00	0.841180
2146.00	0.845120
2136.00	0.844580
2116.00	0.843460
2121.00	0.843720
2166.00	0.846120
2086.00	0.841680
2081.00	0.841420
2126.00	0.844020
2161.00	0.845820
2111.00	0.843120
2151.00	0.845320
