# Wavenumber Transmittence
3421.00 0.874420
3476.00 0.876900
3406.00 0.873360
3481.00 0.876980
3396.00 0.872560
3446.00 0.875680
3426.00 0.874680
3416.00 0.874160
3386.00 0.871760
3391.00 0.872140
3451.00 0.875920
3441.00 0.875420
3466.00 0.876680
3401.00 0.872940
3471.00 0.876800
3486.00 0.877100
3456.00 0.876180
3411.00 0.873740
3431.00 0.874920
3436.00 0.875180
3491.00 0.877180
3461.00 0.876420
