# Wavenumber	Transmittence
2851.00	0.830880
2846.00	0.844520
2796.00	0.862420
2816.00	0.855980
2781.00	0.863780
2801.00	0.861400
2811.00	0.857840
2786.00	0.863280
2771.00	0.863740
2821.00	0.854140
2766.00	0.861720
2826.00	0.852380
2836.00	0.848840
2806.00	0.859720
2776.00	0.864300
2756.00	0.854760
2841.00	0.847700
2761.00	0.858680
2746.00	0.849680
2831.00	0.850580
2751.00	0.851480
2791.00	0.863020
