# Wavenumber Transmittence
896.00 0.841280
861.00 0.844300
901.00 0.844540
821.00 0.838200
826.00 0.835960
886.00 0.839760
871.00 0.845080
866.00 0.844980
846.00 0.841200
836.00 0.835140
906.00 0.845000
851.00 0.842460
876.00 0.845640
816.00 0.836420
891.00 0.838120
841.00 0.838840
811.00 0.841200
806.00 0.841500
831.00 0.832100
881.00 0.843140
856.00 0.843380
