# Wavenumber,Transmittence
2466.00,0.857720
2401.00,0.855720
2371.00,0.865300
2406.00,0.855980
2366.00,0.868260
2461.00,0.857800
2381.00,0.858320
2391.00,0.856100
2386.00,0.857120
2471.00,0.857580
2356.00,0.868480
2361.00,0.869960
2451.00,0.857520
2396.00,0.855520
2411.00,0.856180
2446.00,0.857320
2456.00,0.857760
2426.00,0.856280
2431.00,0.856580
2351.00,0.864360
2436.00,0.856880
2441.00,0.857120
2421.00,0.856200
2346.00,0.862460
2416.00,0.856200
2376.00,0.861100
