# Wavenumber,Transmittence
821.00,0.838200
811.00,0.841200
826.00,0.835960
886.00,0.839760
871.00,0.845080
866.00,0.844980
891.00,0.838120
806.00,0.841500
791.00,0.841320
881.00,0.843140
896.00,0.841280
796.00,0.839020
876.00,0.845640
861.00,0.844300
816.00,0.836420
801.00,0.839520
831.00,0.832100
846.00,0.841200
836.00,0.835140
851.00,0.842460
856.00,0.843380
841.00,0.838840
901.00,0.844540
