# Wavenumber,Transmittence
931.00,0.845260
966.00,0.854160
986.00,0.849920
941.00,0.848580
981.00,0.851180
996.00,0.847280
1031.00,0.791240
976.00,0.852280
921.00,0.843880
1016.00,0.837460
961.00,0.854680
916.00,0.844400
951.00,0.854100
956.00,0.854820
1026.00,0.808840
1001.00,0.845920
971.00,0.853280
936.00,0.846360
946.00,0.852600
1021.00,0.828440
1011.00,0.841400
1006.00,0.843900
991.00,0.848620
926.00,0.844180
