# Wavenumber,Transmittence
2031.00,0.839380
1981.00,0.838560
2036.00,0.839220
2026.00,0.839400
1996.00,0.838120
1961.00,0.823860
1956.00,0.817040
2041.00,0.839060
2011.00,0.839080
1976.00,0.838940
1971.00,0.834500
2006.00,0.838880
1946.00,0.803140
2021.00,0.839400
1986.00,0.837880
2016.00,0.839280
1991.00,0.837800
1951.00,0.809120
2001.00,0.838620
1966.00,0.828340
