# Wavenumber Transmittence
1536.00 0.783460
1526.00 0.779060
1491.00 0.677860
1466.00 0.751320
1506.00 0.643480
1531.00 0.780360
1451.00 0.755840
1561.00 0.804040
1486.00 0.743900
1516.00 0.720400
1546.00 0.797120
1511.00 0.652920
1551.00 0.805460
1471.00 0.751780
1476.00 0.752060
1481.00 0.758640
1496.00 0.637780
1461.00 0.746500
1501.00 0.601200
1541.00 0.789820
1556.00 0.804380
1521.00 0.768740
1456.00 0.750020
