# Wavenumber Transmittence
2171.00 0.846720
2101.00 0.842520
2126.00 0.844020
2106.00 0.842860
2141.00 0.844840
2191.00 0.849200
2071.00 0.840920
2076.00 0.841180
2131.00 0.844320
2121.00 0.843720
2151.00 0.845320
2166.00 0.846120
2116.00 0.843460
2086.00 0.841680
2111.00 0.843120
2096.00 0.842280
2181.00 0.848120
2156.00 0.845580
2091.00 0.841940
2081.00 0.841420
2146.00 0.845120
2176.00 0.847380
2161.00 0.845820
2136.00 0.844580
2186.00 0.848800
