# Wavenumber	Transmittence
1106.00	0.831880
1111.00	0.832020
1066.00	0.792680
1091.00	0.801720
1151.00	0.845900
1146.00	0.847400
1071.00	0.783100
1156.00	0.844580
1116.00	0.838400
1161.00	0.843880
1141.00	0.848780
1096.00	0.814540
1121.00	0.846540
1081.00	0.794380
1126.00	0.850120
1076.00	0.782080
1136.00	0.849900
1131.00	0.850720
1086.00	0.794340
1101.00	0.826000
