# Wavenumber Transmittence
1561.00 0.804040
1536.00 0.783460
1541.00 0.789820
1631.00 0.794860
1626.00 0.774280
1601.00 0.752720
1586.00 0.807420
1531.00 0.780360
1566.00 0.808480
1611.00 0.719680
1646.00 0.827800
1521.00 0.768740
1621.00 0.749780
1571.00 0.807920
1636.00 0.822500
1516.00 0.720400
1551.00 0.805460
1641.00 0.827800
1546.00 0.797120
1591.00 0.796760
1581.00 0.805400
1556.00 0.804380
1596.00 0.778460
1616.00 0.728360
1606.00 0.734420
1576.00 0.803640
1526.00 0.779060
