# Wavenumber	Transmittence
531.00	0.860500
536.00	0.862060
471.00	0.819700
476.00	0.838200
461.00	0.788240
456.00	0.795540
501.00	0.872600
526.00	0.859220
486.00	0.856180
491.00	0.867160
551.00	0.867080
541.00	0.863700
556.00	0.868880
466.00	0.782880
521.00	0.861760
546.00	0.865380
516.00	0.866700
506.00	0.872020
511.00	0.869920
481.00	0.845540
496.00	0.871440
