# Wavenumber	Transmittence
3481.00	0.876980
3571.00	0.876880
3511.00	0.877500
3546.00	0.877600
3561.00	0.877220
3531.00	0.877600
3486.00	0.877100
3576.00	0.876760
3491.00	0.877180
3521.00	0.877600
3456.00	0.876180
3551.00	0.877540
3496.00	0.877300
3566.00	0.877060
3536.00	0.877600
3516.00	0.877520
3506.00	0.877040
3461.00	0.876420
3471.00	0.876800
3526.00	0.877600
3476.00	0.876900
3466.00	0.876680
3541.00	0.877600
3556.00	0.877380
3501.00	0.877380
