# Wavenumber,Transmittence
541.00,0.863700
521.00,0.861760
536.00,0.862060
546.00,0.865380
456.00,0.795540
561.00,0.870720
491.00,0.867160
466.00,0.782880
526.00,0.859220
556.00,0.868880
501.00,0.872600
486.00,0.856180
511.00,0.869920
481.00,0.845540
496.00,0.871440
551.00,0.867080
506.00,0.872020
566.00,0.872500
471.00,0.819700
531.00,0.860500
516.00,0.866700
461.00,0.788240
476.00,0.838200
