# Wavenumber,Transmittence
1161.00,0.843880
1236.00,0.841860
1221.00,0.833100
1201.00,0.839380
1171.00,0.839400
1231.00,0.841020
1181.00,0.834640
1131.00,0.850720
1206.00,0.837300
1186.00,0.837700
1166.00,0.842760
1211.00,0.834900
1141.00,0.848780
1176.00,0.835140
1146.00,0.847400
1136.00,0.849900
1196.00,0.840140
1151.00,0.845900
1156.00,0.844580
1191.00,0.840040
1216.00,0.833240
1226.00,0.835920
