# Wavenumber	Transmittence
726.00	0.297800
711.00	0.600100
741.00	0.525400
816.00	0.836420
801.00	0.839520
716.00	0.544160
751.00	0.720140
781.00	0.839680
761.00	0.831380
721.00	0.504080
821.00	0.838200
706.00	0.634040
771.00	0.840960
756.00	0.805600
806.00	0.841500
736.00	0.495900
691.00	0.663680
746.00	0.616260
731.00	0.215180
786.00	0.844800
811.00	0.841200
701.00	0.675060
791.00	0.841320
776.00	0.841260
796.00	0.839020
696.00	0.404040
766.00	0.839160
