# Wavenumber	Transmittence
521.00	0.861760
471.00	0.819700
556.00	0.868880
456.00	0.795540
596.00	0.876260
466.00	0.782880
591.00	0.876140
526.00	0.859220
491.00	0.867160
511.00	0.869920
566.00	0.872500
536.00	0.862060
486.00	0.856180
576.00	0.874900
516.00	0.866700
571.00	0.873820
506.00	0.872020
501.00	0.872600
581.00	0.875540
531.00	0.860500
476.00	0.838200
541.00	0.863700
496.00	0.871440
461.00	0.788240
586.00	0.875980
481.00	0.845540
546.00	0.865380
561.00	0.870720
551.00	0.867080
