# Wavenumber,Transmittence
1621.00,0.749780
1716.00,0.828200
1661.00,0.827700
1636.00,0.822500
1666.00,0.827600
1721.00,0.826340
1606.00,0.734420
1596.00,0.778460
1706.00,0.831480
1616.00,0.728360
1691.00,0.831180
1681.00,0.829120
1641.00,0.827800
1671.00,0.827600
1611.00,0.719680
1696.00,0.832460
1591.00,0.796760
1701.00,0.832100
1626.00,0.774280
1656.00,0.827700
1601.00,0.752720
1651.00,0.827720
1631.00,0.794860
1686.00,0.829800
1711.00,0.829960
1646.00,0.827800
1676.00,0.828460
