# Wavenumber Transmittence
691.00 0.663680
766.00 0.839160
686.00 0.702340
711.00 0.600100
651.00 0.861960
716.00 0.544160
641.00 0.867260
661.00 0.854620
721.00 0.504080
701.00 0.675060
751.00 0.720140
646.00 0.864660
706.00 0.634040
746.00 0.616260
726.00 0.297800
676.00 0.752280
671.00 0.797500
761.00 0.831380
741.00 0.525400
731.00 0.215180
681.00 0.716000
756.00 0.805600
736.00 0.495900
696.00 0.404040
666.00 0.845980
656.00 0.858800
