# Wavenumber	Transmittence
3526.00	0.877600
3476.00	0.876900
3466.00	0.876680
3501.00	0.877380
3516.00	0.877520
3416.00	0.874160
3411.00	0.873740
3496.00	0.877300
3446.00	0.875680
3511.00	0.877500
3486.00	0.877100
3441.00	0.875420
3426.00	0.874680
3451.00	0.875920
3421.00	0.874420
3456.00	0.876180
3431.00	0.874920
3521.00	0.877600
3461.00	0.876420
3471.00	0.876800
3531.00	0.877600
3506.00	0.877040
3536.00	0.877600
3481.00	0.876980
3491.00	0.877180
3436.00	0.875180
