# Wavenumber,Transmittence
846.00,0.841200
766.00,0.839160
831.00,0.832100
796.00,0.839020
856.00,0.843380
781.00,0.839680
851.00,0.842460
816.00,0.836420
811.00,0.841200
821.00,0.838200
786.00,0.844800
836.00,0.835140
866.00,0.844980
861.00,0.844300
791.00,0.841320
801.00,0.839520
841.00,0.838840
756.00,0.805600
881.00,0.843140
806.00,0.841500
776.00,0.841260
876.00,0.845640
761.00,0.831380
891.00,0.838120
886.00,0.839760
871.00,0.845080
771.00,0.840960
826.00,0.835960
