# Wavenumber	Transmittence
2656.00	0.863500
2721.00	0.856220
2631.00	0.862140
2636.00	0.862760
2621.00	0.860720
2661.00	0.863500
2691.00	0.862600
2671.00	0.863480
2666.00	0.863520
2651.00	0.863420
2696.00	0.861960
2606.00	0.858860
2596.00	0.857280
2626.00	0.861480
2701.00	0.861220
2676.00	0.863280
2646.00	0.863180
2681.00	0.863120
2611.00	0.859600
2601.00	0.857740
2711.00	0.859520
2686.00	0.862920
2641.00	0.862980
2716.00	0.858120
2616.00	0.860100
2706.00	0.860520
