# Wavenumber Transmittence
1066.00 0.792680
1026.00 0.808840
1006.00 0.843900
1081.00 0.794380
1071.00 0.783100
1011.00 0.841400
991.00 0.848620
1036.00 0.794580
1051.00 0.811160
1101.00 0.826000
1076.00 0.782080
1046.00 0.807360
1021.00 0.828440
1086.00 0.794340
1091.00 0.801720
1001.00 0.845920
1031.00 0.791240
1016.00 0.837460
1056.00 0.806180
996.00 0.847280
1106.00 0.831880
1041.00 0.799360
1096.00 0.814540
1061.00 0.800740
