# Wavenumber Transmittence
3326.00 0.868420
3286.00 0.865980
3246.00 0.864760
3271.00 0.865040
3316.00 0.867820
3281.00 0.865680
3306.00 0.867180
3341.00 0.869220
3346.00 0.869480
3251.00 0.864640
3301.00 0.866920
3261.00 0.864440
3321.00 0.868120
3336.00 0.868980
3291.00 0.866280
3331.00 0.868720
3311.00 0.867520
3296.00 0.866580
3276.00 0.865380
3266.00 0.864760
3256.00 0.864520
