# Wavenumber Transmittence
2586.00 0.856920
2671.00 0.863480
2576.00 0.857120
2601.00 0.857740
2651.00 0.863420
2636.00 0.862760
2661.00 0.863500
2641.00 0.862980
2621.00 0.860720
2581.00 0.857000
2591.00 0.857020
2606.00 0.858860
2626.00 0.861480
2611.00 0.859600
2616.00 0.860100
2676.00 0.863280
2656.00 0.863500
2666.00 0.863520
2631.00 0.862140
2646.00 0.863180
2571.00 0.857340
2686.00 0.862920
2681.00 0.863120
2596.00 0.857280
