# Wavenumber	Transmittence
2206.00	0.850260
2156.00	0.845580
2226.00	0.850760
2161.00	0.845820
2271.00	0.853340
2216.00	0.850520
2231.00	0.850880
2196.00	0.849700
2221.00	0.850640
2211.00	0.850380
2176.00	0.847380
2191.00	0.849200
2151.00	0.845320
2251.00	0.851820
2261.00	0.852400
2166.00	0.846120
2146.00	0.845120
2201.00	0.850120
2256.00	0.852060
2186.00	0.848800
2171.00	0.846720
2266.00	0.852900
2241.00	0.851320
2246.00	0.851580
2181.00	0.848120
2236.00	0.851080
