# Wavenumber	Transmittence
3161.00	0.861680
3201.00	0.865420
3141.00	0.854080
3136.00	0.844460
3216.00	0.866900
3246.00	0.864760
3151.00	0.859680
3196.00	0.863800
3171.00	0.861680
3186.00	0.860840
3241.00	0.864880
3166.00	0.862160
3181.00	0.859980
3236.00	0.865020
3226.00	0.865800
3126.00	0.810080
3131.00	0.829940
3146.00	0.858100
3176.00	0.860460
3206.00	0.866740
3231.00	0.865220
3121.00	0.794920
3221.00	0.866340
3191.00	0.862280
3156.00	0.860760
3211.00	0.867260
