# Wavenumber	Transmittence
2751.00	0.851480
2696.00	0.861960
2716.00	0.858120
2741.00	0.849640
2701.00	0.861220
2726.00	0.854020
2661.00	0.863500
2676.00	0.863280
2721.00	0.856220
2681.00	0.863120
2706.00	0.860520
2711.00	0.859520
2656.00	0.863500
2646.00	0.863180
2746.00	0.849680
2756.00	0.854760
2651.00	0.863420
2736.00	0.850520
2666.00	0.863520
2686.00	0.862920
2766.00	0.861720
2731.00	0.852120
2771.00	0.863740
2691.00	0.862600
2761.00	0.858680
2671.00	0.863480
2641.00	0.862980
