# Wavenumber Transmittence
3381.00 0.871340
3461.00 0.876420
3441.00 0.875420
3416.00 0.874160
3426.00 0.874680
3456.00 0.876180
3401.00 0.872940
3471.00 0.876800
3421.00 0.874420
3501.00 0.877380
3496.00 0.877300
3411.00 0.873740
3431.00 0.874920
3391.00 0.872140
3491.00 0.877180
3436.00 0.875180
3451.00 0.875920
3506.00 0.877040
3386.00 0.871760
3406.00 0.873360
3481.00 0.876980
3486.00 0.877100
3466.00 0.876680
3396.00 0.872560
3476.00 0.876900
3446.00 0.875680
