# Wavenumber,Transmittence
716.00,0.544160
696.00,0.404040
711.00,0.600100
796.00,0.839020
691.00,0.663680
721.00,0.504080
761.00,0.831380
791.00,0.841320
756.00,0.805600
686.00,0.702340
736.00,0.495900
731.00,0.215180
786.00,0.844800
741.00,0.525400
706.00,0.634040
771.00,0.840960
701.00,0.675060
681.00,0.716000
746.00,0.616260
781.00,0.839680
776.00,0.841260
766.00,0.839160
726.00,0.297800
751.00,0.720140
