# Wavenumber	Transmittence
3376.00	0.870980
3386.00	0.871760
3361.00	0.870220
3316.00	0.867820
3311.00	0.867520
3306.00	0.867180
3301.00	0.866920
3371.00	0.870720
3281.00	0.865680
3381.00	0.871340
3366.00	0.870480
3286.00	0.865980
3296.00	0.866580
3321.00	0.868120
3326.00	0.868420
3336.00	0.868980
3356.00	0.869980
3331.00	0.868720
3271.00	0.865040
3341.00	0.869220
3276.00	0.865380
3351.00	0.869720
3291.00	0.866280
3346.00	0.869480
