# Wavenumber,Transmittence
1306.00,0.833740
1381.00,0.780600
1376.00,0.792380
1296.00,0.836400
1371.00,0.807380
1386.00,0.776800
1286.00,0.838200
1391.00,0.779980
1366.00,0.820360
1336.00,0.829600
1406.00,0.807340
1351.00,0.831080
1341.00,0.828900
1316.00,0.831900
1396.00,0.791060
1321.00,0.831400
1291.00,0.837660
1281.00,0.838640
1401.00,0.801980
1356.00,0.832000
1331.00,0.830300
1301.00,0.834980
1346.00,0.829080
1361.00,0.829300
1311.00,0.832580
1326.00,0.830860
