# Wavenumber,Transmittence
956.00,0.854820
906.00,0.845000
991.00,0.848620
916.00,0.844400
941.00,0.848580
1006.00,0.843900
1011.00,0.841400
1001.00,0.845920
1016.00,0.837460
961.00,0.854680
971.00,0.853280
926.00,0.844180
901.00,0.844540
996.00,0.847280
921.00,0.843880
936.00,0.846360
986.00,0.849920
951.00,0.854100
976.00,0.852280
911.00,0.844860
981.00,0.851180
946.00,0.852600
966.00,0.854160
931.00,0.845260
