# Wavenumber	Transmittence
991.00	0.848620
1006.00	0.843900
1086.00	0.794340
1061.00	0.800740
1081.00	0.794380
976.00	0.852280
1036.00	0.794580
1051.00	0.811160
1041.00	0.799360
996.00	0.847280
986.00	0.849920
1016.00	0.837460
1011.00	0.841400
1046.00	0.807360
1056.00	0.806180
971.00	0.853280
1031.00	0.791240
1021.00	0.828440
1091.00	0.801720
1026.00	0.808840
1001.00	0.845920
981.00	0.851180
1076.00	0.782080
1066.00	0.792680
1071.00	0.783100
