# Wavenumber Transmittence
1511.00 0.652920
1571.00 0.807920
1491.00 0.677860
1536.00 0.783460
1586.00 0.807420
1486.00 0.743900
1556.00 0.804380
1566.00 0.808480
1576.00 0.803640
1561.00 0.804040
1541.00 0.789820
1501.00 0.601200
1551.00 0.805460
1546.00 0.797120
1526.00 0.779060
1496.00 0.637780
1506.00 0.643480
1521.00 0.768740
1581.00 0.805400
1531.00 0.780360
1516.00 0.720400
