# Wavenumber,Transmittence
926.00,0.844180
876.00,0.845640
851.00,0.842460
896.00,0.841280
916.00,0.844400
831.00,0.832100
891.00,0.838120
841.00,0.838840
871.00,0.845080
901.00,0.844540
886.00,0.839760
866.00,0.844980
836.00,0.835140
861.00,0.844300
846.00,0.841200
911.00,0.844860
906.00,0.845000
881.00,0.843140
921.00,0.843880
856.00,0.843380
