# Wavenumber Transmittence
691.00 0.663680
656.00 0.858800
651.00 0.861960
626.00 0.871840
596.00 0.876260
606.00 0.875300
706.00 0.634040
701.00 0.675060
676.00 0.752280
726.00 0.297800
666.00 0.845980
686.00 0.702340
631.00 0.870740
611.00 0.874600
641.00 0.867260
716.00 0.544160
681.00 0.716000
696.00 0.404040
616.00 0.873920
646.00 0.864660
711.00 0.600100
601.00 0.875960
621.00 0.872960
591.00 0.876140
671.00 0.797500
636.00 0.869540
721.00 0.504080
661.00 0.854620
