# Wavenumber Transmittence
3256.00 0.864520
3296.00 0.866580
3286.00 0.865980
3271.00 0.865040
3316.00 0.867820
3221.00 0.866340
3261.00 0.864440
3301.00 0.866920
3231.00 0.865220
3251.00 0.864640
3266.00 0.864760
3236.00 0.865020
3306.00 0.867180
3311.00 0.867520
3291.00 0.866280
3241.00 0.864880
3321.00 0.868120
3246.00 0.864760
3281.00 0.865680
3276.00 0.865380
3226.00 0.865800
