# Wavenumber,Transmittence
3456.00,0.876180
3481.00,0.876980
3471.00,0.876800
3376.00,0.870980
3411.00,0.873740
3461.00,0.876420
3406.00,0.873360
3446.00,0.875680
3426.00,0.874680
3451.00,0.875920
3436.00,0.875180
3391.00,0.872140
3371.00,0.870720
3386.00,0.871760
3396.00,0.872560
3466.00,0.876680
3366.00,0.870480
3381.00,0.871340
3416.00,0.874160
3421.00,0.874420
3476.00,0.876900
3431.00,0.874920
3361.00,0.870220
3401.00,0.872940
3441.00,0.875420
3486.00,0.877100
