# Wavenumber Transmittence
826.00 0.835960
761.00 0.831380
776.00 0.841260
816.00 0.836420
796.00 0.839020
811.00 0.841200
756.00 0.805600
846.00 0.841200
851.00 0.842460
781.00 0.839680
786.00 0.844800
841.00 0.838840
856.00 0.843380
746.00 0.616260
806.00 0.841500
821.00 0.838200
831.00 0.832100
771.00 0.840960
736.00 0.495900
751.00 0.720140
791.00 0.841320
836.00 0.835140
801.00 0.839520
766.00 0.839160
741.00 0.525400
