# Wavenumber,Transmittence
951.00,0.854100
921.00,0.843880
901.00,0.844540
981.00,0.851180
916.00,0.844400
1016.00,0.837460
931.00,0.845260
961.00,0.854680
976.00,0.852280
1021.00,0.828440
991.00,0.848620
956.00,0.854820
1006.00,0.843900
996.00,0.847280
896.00,0.841280
906.00,0.845000
946.00,0.852600
926.00,0.844180
1001.00,0.845920
1011.00,0.841400
941.00,0.848580
986.00,0.849920
911.00,0.844860
936.00,0.846360
966.00,0.854160
971.00,0.853280
891.00,0.838120
