# Wavenumber Transmittence
2816.00 0.855980
2751.00 0.851480
2826.00 0.852380
2776.00 0.864300
2736.00 0.850520
2746.00 0.849680
2771.00 0.863740
2761.00 0.858680
2821.00 0.854140
2781.00 0.863780
2796.00 0.862420
2806.00 0.859720
2811.00 0.857840
2831.00 0.850580
2766.00 0.861720
2786.00 0.863280
2791.00 0.863020
2756.00 0.854760
2801.00 0.861400
2741.00 0.849640
2836.00 0.848840
