# Wavenumber Transmittence
1376.00 0.792380
1346.00 0.829080
1381.00 0.780600
1341.00 0.828900
1406.00 0.807340
1386.00 0.776800
1396.00 0.791060
1361.00 0.829300
1436.00 0.793200
1411.00 0.806640
1416.00 0.803920
1366.00 0.820360
1391.00 0.779980
1431.00 0.801500
1356.00 0.832000
1446.00 0.768760
1351.00 0.831080
1441.00 0.781460
1371.00 0.807380
1401.00 0.801980
1421.00 0.800380
1426.00 0.803460
