# Wavenumber Transmittence
1006.00 0.843900
911.00 0.844860
951.00 0.854100
1016.00 0.837460
946.00 0.852600
986.00 0.849920
976.00 0.852280
916.00 0.844400
956.00 0.854820
936.00 0.846360
926.00 0.844180
1011.00 0.841400
996.00 0.847280
941.00 0.848580
921.00 0.843880
961.00 0.854680
931.00 0.845260
966.00 0.854160
971.00 0.853280
1001.00 0.845920
981.00 0.851180
991.00 0.848620
