# Wavenumber	Transmittence
3206.00	0.866740
3201.00	0.865420
3221.00	0.866340
3231.00	0.865220
3196.00	0.863800
3211.00	0.867260
3186.00	0.860840
3251.00	0.864640
3256.00	0.864520
3291.00	0.866280
3226.00	0.865800
3261.00	0.864440
3236.00	0.865020
3241.00	0.864880
3181.00	0.859980
3246.00	0.864760
3276.00	0.865380
3281.00	0.865680
3286.00	0.865980
3271.00	0.865040
3266.00	0.864760
3216.00	0.866900
3191.00	0.862280
