# Wavenumber Transmittence
3346.00 0.869480
3341.00 0.869220
3371.00 0.870720
3361.00 0.870220
3401.00 0.872940
3366.00 0.870480
3431.00 0.874920
3421.00 0.874420
3356.00 0.869980
3391.00 0.872140
3336.00 0.868980
3381.00 0.871340
3386.00 0.871760
3351.00 0.869720
3426.00 0.874680
3411.00 0.873740
3376.00 0.870980
3396.00 0.872560
3416.00 0.874160
3406.00 0.873360
