# Wavenumber,Transmittence
1361.00,0.829300
1396.00,0.791060
1336.00,0.829600
1306.00,0.833740
1331.00,0.830300
1316.00,0.831900
1301.00,0.834980
1341.00,0.828900
1386.00,0.776800
1356.00,0.832000
1321.00,0.831400
1351.00,0.831080
1371.00,0.807380
1376.00,0.792380
1326.00,0.830860
1391.00,0.779980
1311.00,0.832580
1366.00,0.820360
1346.00,0.829080
1381.00,0.780600
