# Wavenumber,Transmittence
936.00,0.846360
916.00,0.844400
1031.00,0.791240
1021.00,0.828440
961.00,0.854680
921.00,0.843880
1036.00,0.794580
986.00,0.849920
1016.00,0.837460
996.00,0.847280
966.00,0.854160
931.00,0.845260
941.00,0.848580
926.00,0.844180
991.00,0.848620
1041.00,0.799360
981.00,0.851180
956.00,0.854820
1046.00,0.807360
971.00,0.853280
946.00,0.852600
976.00,0.852280
951.00,0.854100
1001.00,0.845920
1006.00,0.843900
1011.00,0.841400
1026.00,0.808840
