# Wavenumber	Transmittence
1076.00	0.782080
1151.00	0.845900
1116.00	0.838400
1146.00	0.847400
1166.00	0.842760
1161.00	0.843880
1071.00	0.783100
1131.00	0.850720
1121.00	0.846540
1126.00	0.850120
1171.00	0.839400
1111.00	0.832020
1156.00	0.844580
1091.00	0.801720
1181.00	0.834640
1176.00	0.835140
1096.00	0.814540
1136.00	0.849900
1141.00	0.848780
1086.00	0.794340
1101.00	0.826000
1081.00	0.794380
1106.00	0.831880
