# Wavenumber,Transmittence
2331.00,0.863720
2371.00,0.865300
2421.00,0.856200
2401.00,0.855720
2351.00,0.864360
2416.00,0.856200
2411.00,0.856180
2406.00,0.855980
2326.00,0.862600
2381.00,0.858320
2361.00,0.869960
2391.00,0.856100
2386.00,0.857120
2356.00,0.868480
2396.00,0.855520
2336.00,0.863880
2426.00,0.856280
2341.00,0.863040
2346.00,0.862460
2376.00,0.861100
2366.00,0.868260
