# Wavenumber,Transmittence
531.00,0.860500
481.00,0.845540
536.00,0.862060
546.00,0.865380
511.00,0.869920
461.00,0.788240
476.00,0.838200
556.00,0.868880
466.00,0.782880
491.00,0.867160
526.00,0.859220
561.00,0.870720
571.00,0.873820
566.00,0.872500
541.00,0.863700
471.00,0.819700
496.00,0.871440
506.00,0.872020
551.00,0.867080
501.00,0.872600
521.00,0.861760
516.00,0.866700
486.00,0.856180
456.00,0.795540
