# Wavenumber Transmittence
1196.00 0.840140
1161.00 0.843880
1131.00 0.850720
1151.00 0.845900
1136.00 0.849900
1211.00 0.834900
1126.00 0.850120
1206.00 0.837300
1141.00 0.848780
1216.00 0.833240
1221.00 0.833100
1181.00 0.834640
1201.00 0.839380
1166.00 0.842760
1186.00 0.837700
1156.00 0.844580
1176.00 0.835140
1116.00 0.838400
1121.00 0.846540
1171.00 0.839400
1191.00 0.840040
1146.00 0.847400
