# Wavenumber,Transmittence
2701.00,0.861220
2691.00,0.862600
2656.00,0.863500
2636.00,0.862760
2721.00,0.856220
2646.00,0.863180
2631.00,0.862140
2671.00,0.863480
2706.00,0.860520
2686.00,0.862920
2621.00,0.860720
2726.00,0.854020
2641.00,0.862980
2626.00,0.861480
2696.00,0.861960
2661.00,0.863500
2681.00,0.863120
2676.00,0.863280
2716.00,0.858120
2736.00,0.850520
2666.00,0.863520
2711.00,0.859520
2651.00,0.863420
2731.00,0.852120
