# Wavenumber	Transmittence
546.00	0.865380
561.00	0.870720
596.00	0.876260
516.00	0.866700
571.00	0.873820
581.00	0.875540
586.00	0.875980
556.00	0.868880
551.00	0.867080
511.00	0.869920
601.00	0.875960
531.00	0.860500
591.00	0.876140
521.00	0.861760
576.00	0.874900
606.00	0.875300
541.00	0.863700
536.00	0.862060
526.00	0.859220
566.00	0.872500
