# Wavenumber,Transmittence
771.00,0.840960
791.00,0.841320
851.00,0.842460
776.00,0.841260
816.00,0.836420
846.00,0.841200
826.00,0.835960
786.00,0.844800
821.00,0.838200
831.00,0.832100
861.00,0.844300
856.00,0.843380
841.00,0.838840
796.00,0.839020
811.00,0.841200
761.00,0.831380
781.00,0.839680
801.00,0.839520
756.00,0.805600
806.00,0.841500
766.00,0.839160
836.00,0.835140
751.00,0.720140
