# Wavenumber	Transmittence
1221.00	0.833100
1191.00	0.840040
1146.00	0.847400
1151.00	0.845900
1126.00	0.850120
1156.00	0.844580
1171.00	0.839400
1211.00	0.834900
1231.00	0.841020
1201.00	0.839380
1176.00	0.835140
1226.00	0.835920
1181.00	0.834640
1161.00	0.843880
1131.00	0.850720
1216.00	0.833240
1121.00	0.846540
1196.00	0.840140
1186.00	0.837700
1166.00	0.842760
1206.00	0.837300
1141.00	0.848780
1136.00	0.849900
