# Wavenumber Transmittence
1536.00 0.783460
1431.00 0.801500
1471.00 0.751780
1461.00 0.746500
1521.00 0.768740
1496.00 0.637780
1451.00 0.755840
1481.00 0.758640
1511.00 0.652920
1456.00 0.750020
1441.00 0.781460
1476.00 0.752060
1516.00 0.720400
1491.00 0.677860
1531.00 0.780360
1506.00 0.643480
1486.00 0.743900
1446.00 0.768760
1436.00 0.793200
1501.00 0.601200
1526.00 0.779060
1466.00 0.751320
