# Wavenumber Transmittence
3261.00 0.864440
3296.00 0.866580
3311.00 0.867520
3331.00 0.868720
3306.00 0.867180
3361.00 0.870220
3321.00 0.868120
3286.00 0.865980
3271.00 0.865040
3281.00 0.865680
3346.00 0.869480
3351.00 0.869720
3276.00 0.865380
3251.00 0.864640
3366.00 0.870480
3356.00 0.869980
3341.00 0.869220
3316.00 0.867820
3326.00 0.868420
3256.00 0.864520
3336.00 0.868980
3266.00 0.864760
3301.00 0.866920
3291.00 0.866280
