# Wavenumber Transmittence
2811.00 0.857840
2806.00 0.859720
2756.00 0.854760
2761.00 0.858680
2781.00 0.863780
2831.00 0.850580
2726.00 0.854020
2751.00 0.851480
2776.00 0.864300
2821.00 0.854140
2711.00 0.859520
2746.00 0.849680
2716.00 0.858120
2771.00 0.863740
2791.00 0.863020
2826.00 0.852380
2736.00 0.850520
2766.00 0.861720
2741.00 0.849640
2786.00 0.863280
2731.00 0.852120
2796.00 0.862420
2801.00 0.861400
2816.00 0.855980
2721.00 0.856220
