# Wavenumber,Transmittence
686.00,0.702340
731.00,0.215180
621.00,0.872960
706.00,0.634040
716.00,0.544160
651.00,0.861960
631.00,0.870740
656.00,0.858800
671.00,0.797500
696.00,0.404040
681.00,0.716000
661.00,0.854620
676.00,0.752280
751.00,0.720140
701.00,0.675060
736.00,0.495900
691.00,0.663680
756.00,0.805600
741.00,0.525400
721.00,0.504080
726.00,0.297800
616.00,0.873920
626.00,0.871840
711.00,0.600100
636.00,0.869540
646.00,0.864660
666.00,0.845980
641.00,0.867260
746.00,0.616260
