# Wavenumber	Transmittence
626.00	0.871840
616.00	0.873920
596.00	0.876260
536.00	0.862060
541.00	0.863700
601.00	0.875960
586.00	0.875980
591.00	0.876140
621.00	0.872960
581.00	0.875540
611.00	0.874600
571.00	0.873820
551.00	0.867080
531.00	0.860500
641.00	0.867260
556.00	0.868880
631.00	0.870740
566.00	0.872500
606.00	0.875300
561.00	0.870720
546.00	0.865380
636.00	0.869540
576.00	0.874900
