# Wavenumber	Transmittence
886.00	0.839760
971.00	0.853280
891.00	0.838120
936.00	0.846360
956.00	0.854820
911.00	0.844860
901.00	0.844540
946.00	0.852600
976.00	0.852280
921.00	0.843880
916.00	0.844400
871.00	0.845080
926.00	0.844180
931.00	0.845260
986.00	0.849920
876.00	0.845640
961.00	0.854680
881.00	0.843140
981.00	0.851180
896.00	0.841280
941.00	0.848580
966.00	0.854160
906.00	0.845000
866.00	0.844980
951.00	0.854100
