# Wavenumber	Transmittence
576.00	0.874900
581.00	0.875540
551.00	0.867080
571.00	0.873820
566.00	0.872500
591.00	0.876140
521.00	0.861760
546.00	0.865380
586.00	0.875980
626.00	0.871840
596.00	0.876260
611.00	0.874600
516.00	0.866700
621.00	0.872960
536.00	0.862060
541.00	0.863700
556.00	0.868880
526.00	0.859220
616.00	0.873920
531.00	0.860500
601.00	0.875960
561.00	0.870720
631.00	0.870740
606.00	0.875300
