# Wavenumber Transmittence
3406.00 0.873360
3396.00 0.872560
3386.00 0.871760
3401.00 0.872940
3441.00 0.875420
3381.00 0.871340
3356.00 0.869980
3361.00 0.870220
3421.00 0.874420
3436.00 0.875180
3446.00 0.875680
3426.00 0.874680
3411.00 0.873740
3416.00 0.874160
3451.00 0.875920
3366.00 0.870480
3391.00 0.872140
3351.00 0.869720
3431.00 0.874920
3376.00 0.870980
3371.00 0.870720
