# Wavenumber,Transmittence
906.00,0.845000
911.00,0.844860
921.00,0.843880
846.00,0.841200
936.00,0.846360
831.00,0.832100
916.00,0.844400
856.00,0.843380
891.00,0.838120
871.00,0.845080
841.00,0.838840
826.00,0.835960
931.00,0.845260
881.00,0.843140
866.00,0.844980
886.00,0.839760
926.00,0.844180
901.00,0.844540
861.00,0.844300
851.00,0.842460
896.00,0.841280
876.00,0.845640
836.00,0.835140
