# Wavenumber,Transmittence
616.00,0.873920
736.00,0.495900
641.00,0.867260
626.00,0.871840
706.00,0.634040
691.00,0.663680
681.00,0.716000
701.00,0.675060
671.00,0.797500
666.00,0.845980
696.00,0.404040
631.00,0.870740
716.00,0.544160
636.00,0.869540
621.00,0.872960
686.00,0.702340
711.00,0.600100
661.00,0.854620
726.00,0.297800
646.00,0.864660
656.00,0.858800
676.00,0.752280
611.00,0.874600
731.00,0.215180
721.00,0.504080
651.00,0.861960
