# Wavenumber Transmittence
2591.00 0.857020
2636.00 0.862760
2656.00 0.863500
2576.00 0.857120
2626.00 0.861480
2646.00 0.863180
2581.00 0.857000
2561.00 0.858140
2601.00 0.857740
2596.00 0.857280
2571.00 0.857340
2586.00 0.856920
2641.00 0.862980
2611.00 0.859600
2566.00 0.857720
2606.00 0.858860
2616.00 0.860100
2621.00 0.860720
2631.00 0.862140
2651.00 0.863420
