# Wavenumber,Transmittence
3716.00,0.872560
3741.00,0.872040
3696.00,0.872020
3646.00,0.874380
3726.00,0.872360
3721.00,0.872440
3711.00,0.872680
3651.00,0.874120
3736.00,0.872160
3666.00,0.873180
3661.00,0.873620
3746.00,0.871960
3641.00,0.874620
3761.00,0.872080
3686.00,0.871200
3731.00,0.872240
3676.00,0.871720
3681.00,0.871220
3706.00,0.872680
3691.00,0.871360
3701.00,0.872420
3751.00,0.871840
3756.00,0.871720
3656.00,0.873880
3671.00,0.872420
