# Wavenumber,Transmittence
711.00,0.600100
776.00,0.841260
761.00,0.831380
786.00,0.844800
791.00,0.841320
801.00,0.839520
721.00,0.504080
696.00,0.404040
771.00,0.840960
746.00,0.616260
751.00,0.720140
736.00,0.495900
766.00,0.839160
701.00,0.675060
741.00,0.525400
811.00,0.841200
716.00,0.544160
796.00,0.839020
806.00,0.841500
731.00,0.215180
726.00,0.297800
706.00,0.634040
756.00,0.805600
781.00,0.839680
