# Wavenumber	Transmittence
2216.00	0.850520
2191.00	0.849200
2161.00	0.845820
2206.00	0.850260
2176.00	0.847380
2201.00	0.850120
2171.00	0.846720
2156.00	0.845580
2181.00	0.848120
2221.00	0.850640
2131.00	0.844320
2126.00	0.844020
2211.00	0.850380
2141.00	0.844840
2136.00	0.844580
2196.00	0.849700
2226.00	0.850760
2186.00	0.848800
2166.00	0.846120
2146.00	0.845120
2151.00	0.845320
