# Wavenumber	Transmittence
496.00	0.871440
491.00	0.867160
536.00	0.862060
511.00	0.869920
466.00	0.782880
566.00	0.872500
526.00	0.859220
571.00	0.873820
501.00	0.872600
506.00	0.872020
541.00	0.863700
546.00	0.865380
591.00	0.876140
476.00	0.838200
581.00	0.875540
456.00	0.795540
521.00	0.861760
551.00	0.867080
561.00	0.870720
556.00	0.868880
576.00	0.874900
586.00	0.875980
516.00	0.866700
461.00	0.788240
481.00	0.845540
471.00	0.819700
531.00	0.860500
486.00	0.856180
