# Wavenumber	Transmittence
746.00	0.616260
686.00	0.702340
676.00	0.752280
776.00	0.841260
716.00	0.544160
761.00	0.831380
701.00	0.675060
766.00	0.839160
726.00	0.297800
786.00	0.844800
731.00	0.215180
736.00	0.495900
681.00	0.716000
696.00	0.404040
751.00	0.720140
741.00	0.525400
691.00	0.663680
771.00	0.840960
791.00	0.841320
671.00	0.797500
781.00	0.839680
721.00	0.504080
706.00	0.634040
711.00	0.600100
756.00	0.805600
