# Wavenumber Transmittence
2311.00 0.858520
2241.00 0.851320
2201.00 0.850120
2196.00 0.849700
2251.00 0.851820
2246.00 0.851580
2296.00 0.855520
2231.00 0.850880
2291.00 0.855440
2266.00 0.852900
2221.00 0.850640
2281.00 0.854300
2256.00 0.852060
2261.00 0.852400
2286.00 0.854820
2306.00 0.857420
2216.00 0.850520
2211.00 0.850380
2271.00 0.853340
2276.00 0.853800
2206.00 0.850260
2226.00 0.850760
2236.00 0.851080
2301.00 0.856740
