# Wavenumber Transmittence
731.00 0.215180
706.00 0.634040
686.00 0.702340
646.00 0.864660
716.00 0.544160
656.00 0.858800
711.00 0.600100
736.00 0.495900
696.00 0.404040
676.00 0.752280
681.00 0.716000
651.00 0.861960
721.00 0.504080
666.00 0.845980
726.00 0.297800
641.00 0.867260
661.00 0.854620
691.00 0.663680
701.00 0.675060
671.00 0.797500
751.00 0.720140
766.00 0.839160
741.00 0.525400
761.00 0.831380
746.00 0.616260
756.00 0.805600
