# Wavenumber,Transmittence
1301.00,0.834980
1331.00,0.830300
1366.00,0.820360
1281.00,0.838640
1336.00,0.829600
1341.00,0.828900
1256.00,0.837260
1286.00,0.838200
1291.00,0.837660
1321.00,0.831400
1311.00,0.832580
1356.00,0.832000
1271.00,0.839580
1351.00,0.831080
1326.00,0.830860
1266.00,0.839540
1296.00,0.836400
1346.00,0.829080
1276.00,0.839120
1361.00,0.829300
1306.00,0.833740
1376.00,0.792380
1381.00,0.780600
1316.00,0.831900
1261.00,0.838880
1371.00,0.807380
