# Wavenumber	Transmittence
1036.00	0.794580
956.00	0.854820
946.00	0.852600
981.00	0.851180
1011.00	0.841400
1051.00	0.811160
971.00	0.853280
941.00	0.848580
1001.00	0.845920
1041.00	0.799360
1061.00	0.800740
966.00	0.854160
976.00	0.852280
1016.00	0.837460
1056.00	0.806180
1046.00	0.807360
1031.00	0.791240
961.00	0.854680
1021.00	0.828440
951.00	0.854100
996.00	0.847280
1026.00	0.808840
986.00	0.849920
991.00	0.848620
1006.00	0.843900
