# Wavenumber Transmittence
1261.00 0.838880
1281.00 0.838640
1286.00 0.838200
1306.00 0.833740
1336.00 0.829600
1256.00 0.837260
1266.00 0.839540
1341.00 0.828900
1251.00 0.836920
1321.00 0.831400
1276.00 0.839120
1246.00 0.838500
1301.00 0.834980
1296.00 0.836400
1291.00 0.837660
1271.00 0.839580
1326.00 0.830860
1331.00 0.830300
1316.00 0.831900
1311.00 0.832580
