# Wavenumber	Transmittence
3051.00	0.574200
2976.00	0.764380
3006.00	0.697520
3046.00	0.489560
3016.00	0.668520
2951.00	0.704520
3036.00	0.460880
2946.00	0.657160
2971.00	0.767580
2981.00	0.757460
3011.00	0.685480
3021.00	0.618980
2966.00	0.761280
3031.00	0.491300
2996.00	0.727660
2991.00	0.739980
2956.00	0.730640
3001.00	0.712100
3026.00	0.554680
3066.00	0.613380
3061.00	0.624440
2986.00	0.749740
2961.00	0.747520
3056.00	0.627860
3041.00	0.460360
