# Wavenumber Transmittence
3446.00 0.875680
3456.00 0.876180
3481.00 0.876980
3486.00 0.877100
3521.00 0.877600
3451.00 0.875920
3476.00 0.876900
3441.00 0.875420
3431.00 0.874920
3496.00 0.877300
3526.00 0.877600
3536.00 0.877600
3501.00 0.877380
3531.00 0.877600
3506.00 0.877040
3516.00 0.877520
3471.00 0.876800
3511.00 0.877500
3436.00 0.875180
3466.00 0.876680
3461.00 0.876420
3491.00 0.877180
