# Wavenumber Transmittence
561.00 0.870720
571.00 0.873820
466.00 0.782880
521.00 0.861760
481.00 0.845540
526.00 0.859220
516.00 0.866700
461.00 0.788240
541.00 0.863700
471.00 0.819700
566.00 0.872500
476.00 0.838200
501.00 0.872600
551.00 0.867080
556.00 0.868880
546.00 0.865380
486.00 0.856180
491.00 0.867160
511.00 0.869920
456.00 0.795540
531.00 0.860500
496.00 0.871440
536.00 0.862060
506.00 0.872020
