# Wavenumber Transmittence
1356.00 0.832000
1266.00 0.839540
1331.00 0.830300
1286.00 0.838200
1291.00 0.837660
1311.00 0.832580
1256.00 0.837260
1341.00 0.828900
1296.00 0.836400
1346.00 0.829080
1271.00 0.839580
1351.00 0.831080
1321.00 0.831400
1306.00 0.833740
1281.00 0.838640
1301.00 0.834980
1276.00 0.839120
1336.00 0.829600
1261.00 0.838880
1326.00 0.830860
1361.00 0.829300
1316.00 0.831900
