# Wavenumber Transmittence
1531.00 0.780360
1566.00 0.808480
1601.00 0.752720
1546.00 0.797120
1581.00 0.805400
1576.00 0.803640
1556.00 0.804380
1516.00 0.720400
1511.00 0.652920
1541.00 0.789820
1501.00 0.601200
1596.00 0.778460
1521.00 0.768740
1591.00 0.796760
1586.00 0.807420
1561.00 0.804040
1551.00 0.805460
1506.00 0.643480
1536.00 0.783460
1571.00 0.807920
1526.00 0.779060
