# Wavenumber,Transmittence
991.00,0.848620
1011.00,0.841400
1026.00,0.808840
1101.00,0.826000
1071.00,0.783100
1081.00,0.794380
1096.00,0.814540
1006.00,0.843900
1051.00,0.811160
996.00,0.847280
1046.00,0.807360
1036.00,0.794580
981.00,0.851180
1016.00,0.837460
1031.00,0.791240
1021.00,0.828440
1086.00,0.794340
976.00,0.852280
1056.00,0.806180
1091.00,0.801720
1066.00,0.792680
1041.00,0.799360
1061.00,0.800740
986.00,0.849920
1001.00,0.845920
1076.00,0.782080
