# Wavenumber	Transmittence
1481.00	0.758640
1516.00	0.720400
1501.00	0.601200
1531.00	0.780360
1566.00	0.808480
1526.00	0.779060
1541.00	0.789820
1466.00	0.751320
1546.00	0.797120
1571.00	0.807920
1496.00	0.637780
1491.00	0.677860
1506.00	0.643480
1536.00	0.783460
1556.00	0.804380
1561.00	0.804040
1486.00	0.743900
1511.00	0.652920
1476.00	0.752060
1551.00	0.805460
1521.00	0.768740
1456.00	0.750020
1461.00	0.746500
1471.00	0.751780
