# Wavenumber Transmittence
1971.00 0.834500
1961.00 0.823860
1946.00 0.803140
2021.00 0.839400
2041.00 0.839060
1986.00 0.837880
2036.00 0.839220
1981.00 0.838560
2026.00 0.839400
1941.00 0.807640
2031.00 0.839380
1966.00 0.828340
2011.00 0.839080
2001.00 0.838620
1991.00 0.837800
1951.00 0.809120
1976.00 0.838940
2006.00 0.838880
2016.00 0.839280
1996.00 0.838120
1956.00 0.817040
