# Wavenumber,Transmittence
901.00,0.844540
951.00,0.854100
871.00,0.845080
931.00,0.845260
906.00,0.845000
986.00,0.849920
941.00,0.848580
861.00,0.844300
971.00,0.853280
896.00,0.841280
976.00,0.852280
921.00,0.843880
916.00,0.844400
946.00,0.852600
956.00,0.854820
881.00,0.843140
926.00,0.844180
961.00,0.854680
891.00,0.838120
936.00,0.846360
886.00,0.839760
866.00,0.844980
876.00,0.845640
856.00,0.843380
966.00,0.854160
981.00,0.851180
911.00,0.844860
