# Wavenumber,Transmittence
706.00,0.634040
676.00,0.752280
666.00,0.845980
726.00,0.297800
721.00,0.504080
671.00,0.797500
686.00,0.702340
641.00,0.867260
736.00,0.495900
716.00,0.544160
661.00,0.854620
691.00,0.663680
701.00,0.675060
651.00,0.861960
711.00,0.600100
646.00,0.864660
696.00,0.404040
731.00,0.215180
681.00,0.716000
656.00,0.858800
