# Wavenumber	Transmittence
491.00	0.867160
571.00	0.873820
506.00	0.872020
526.00	0.859220
476.00	0.838200
471.00	0.819700
501.00	0.872600
481.00	0.845540
521.00	0.861760
551.00	0.867080
486.00	0.856180
566.00	0.872500
511.00	0.869920
561.00	0.870720
461.00	0.788240
496.00	0.871440
536.00	0.862060
556.00	0.868880
576.00	0.874900
466.00	0.782880
546.00	0.865380
531.00	0.860500
456.00	0.795540
516.00	0.866700
541.00	0.863700
